GITM2 log file
## Inputs from UAM.in
# Resart= F
# Eddy coef:    50.000 Eddy P0:     0.010 Eddy P1:     0.005
# Statistical Models Only:  F Apex:  F
# EUV Data:  TFile: 
UA/DataIn/FISM/fismflux_daily_2002.dat                                                                                                                                                                                                                                                                                                                                                                                                                                                                                                                                                                                  
# E-Field Model: weimer05 Auroral Model: FTA
# AMIE: none           
none                                                                                                                                                                                                                                                                                                                                                                                                                                                                                                                                                                                                                    
# Solar Heating:  T Joule Heating:  T
# NO Cooling:  T O Cooling:  T
# Conduction:  T Turbulent Conduction:  T
# Pressure Grad:  T Ion Drag:  T Neutral Drag:  T
# Viscosity:  T Coriolis:  T Gravity:  T
# Ion Chemistry:  T Ion Advection:  T Neutral Chemistry:  T
 
#START
   iStep yyyy mm dd hh mm ss  ms      dt min(T) max(T) mean(T) min(VV) max(VV) mean(VV) F107 F107A By Bz Vx HP HPn HPs HPn_diff HPs_diff HPn_w HPs_w HPn_m HPs_m SubsolarLon SubsolarLat SubsolarVTEC
       2 2002 12 21  0  0  4 105  4.1058    157.67607   1317.06366   1012.07593     -4.34841      5.73680      0.15716    177.9    149.5      6.1     -6.0    531.2     71.9    146.3    146.3 146.25404 146.25404   0.00000   0.00000   0.00000   0.00000   3.14129  -0.40992  58.75926
       3 2002 12 21  0  0  8  37  3.9320    157.71173   1316.99398   1012.26039     -5.92277      4.86210     -0.13276    177.9    149.5      6.2     -6.0    531.0     72.0    146.3    146.3 146.25404 146.25404   0.00000   0.00000   0.00000   0.00000   3.14101  -0.40992  60.82282
       4 2002 12 21  0  0 11 887  3.8494    157.76841   1316.93712   1012.45537     -6.62034      4.56263     -0.30770    177.9    149.5      6.2     -6.0    530.7     72.0    146.3    146.3 146.25404 146.25404   0.00000   0.00000   0.00000   0.00000   3.14073  -0.40992  60.34757
       5 2002 12 21  0  0 15 774  3.8877    157.80222   1316.87878   1012.66111     -6.99680      4.53841     -0.43853    177.9    149.5      6.2     -6.0    530.5     72.0    146.3    146.3 146.25404 146.25404   0.00000   0.00000   0.00000   0.00000   3.14045  -0.40992  60.67072
       6 2002 12 21  0  0 19 611  3.8370    157.81721   1316.83846   1012.87013     -7.24073      4.41361     -0.56004    177.9    149.5      6.3     -6.0    530.2     72.1    146.3    146.3 146.25404 146.25404   0.00000   0.00000   0.00000   0.00000   3.14017  -0.40992  60.61687
       7 2002 12 21  0  0 23 439  3.8280    157.84196   1316.81027   1013.08369     -7.44079      4.35788     -0.66764    177.9    149.5      6.3     -6.0    530.0     72.1    146.3    146.3 146.25404 146.25404   0.00000   0.00000   0.00000   0.00000   3.13989  -0.40992  60.67116
       8 2002 12 21  0  0 27 263  3.8239    157.88379   1316.79774   1013.30096     -7.62241      4.31518     -0.76610    177.9    149.5      6.3     -6.0    529.8     72.2    146.3    146.3 146.25404 146.25404   0.00000   0.00000   0.00000   0.00000   3.13961  -0.40992  60.64320
       9 2002 12 21  0  0 31  87  3.8236    157.93011   1316.80110   1013.52134     -7.79583      4.28435     -0.85860    177.9    149.5      6.4     -6.0    529.5     72.2    146.3    146.3 146.25404 146.25404   0.00000   0.00000   0.00000   0.00000   3.13933  -0.40992  60.64529
      10 2002 12 21  0  0 34 910  3.8237    157.97535   1316.82004   1013.74425     -7.96148      4.25902     -0.94758    177.9    149.5      6.4     -6.0    529.3     72.3    146.3    146.3 146.25404 146.25404   0.00000   0.00000   0.00000   0.00000   3.13905  -0.40992  60.60958
      11 2002 12 21  0  0 38 734  3.8239    158.01350   1316.85354   1013.96915     -8.12052      4.33967     -1.03240    177.9    149.5      6.4     -6.0    529.0     72.3    146.3    146.3 146.25404 146.25404   0.00000   0.00000   0.00000   0.00000   3.13878  -0.40992  60.59607
      12 2002 12 21  0  0 42 558  3.8235    158.04440   1316.90045   1014.19558     -8.27216      4.63101     -1.11316    177.9    149.5      6.5     -6.0    528.8     72.4    146.3    146.3 146.25404 146.25404   0.00000   0.00000   0.00000   0.00000   3.13850  -0.40992  60.55418
      13 2002 12 21  0  0 46 381  3.8227    158.07721   1316.95953   1014.42311     -8.41630      4.94711     -1.18855    177.9    149.5      6.5     -6.0    528.5     72.4    146.3    146.3 146.25404 146.25404   0.00000   0.00000   0.00000   0.00000   3.13822  -0.40992  60.53431
      14 2002 12 21  0  0 50 202  3.8211    158.11803   1317.02919   1014.65134     -8.55091      5.34981     -1.25913    177.9    149.5      6.5     -6.0    528.3     72.5    146.3    146.3 146.25404 146.25404   0.00000   0.00000   0.00000   0.00000   3.13794  -0.40992  60.48874
      15 2002 12 21  0  0 54  21  3.8189    158.16050   1317.17821   1014.87988     -8.67674      5.66695     -1.32618    177.9    149.5      6.6     -6.0    528.0     72.5    146.3    146.3 146.25404 146.25404   0.00000   0.00000   0.00000   0.00000   3.13766  -0.40992  60.46592
      16 2002 12 21  0  0 57 837  3.8162    158.19907   1317.87664   1015.10844     -8.79353      5.98528     -1.38980    177.9    149.5      6.6     -6.0    527.8     72.5    146.3    146.3 146.25404 146.25404   0.00000   0.00000   0.00000   0.00000   3.13739  -0.40992  60.41870
      17 2002 12 21  0  1  1 650  3.8133    158.22698   1318.55630   1015.33675     -8.90128      6.33393     -1.44972    177.9    149.5      6.6     -6.0    527.7     72.6    146.3    146.3 146.25404 146.25404   0.00000   0.00000   0.00000   0.00000   3.13711  -0.40992  60.39452
      18 2002 12 21  0  1  5 461  3.8105    158.24751   1319.22042   1015.56477     -8.99966      6.62456     -1.50495    177.9    149.5      6.6     -6.0    527.8     72.5    149.2    149.2 149.18887 149.18887   0.00000   0.00000   0.00000   0.00000   3.13683  -0.40992  60.34632
      19 2002 12 21  0  1  9 265  3.8040    158.27103   1319.86744   1015.79196     -9.14658      7.12750     -1.55526    177.9    149.5      6.6     -6.0    527.9     72.5    149.2    149.2 149.18887 149.18887   0.00000   0.00000   0.00000   0.00000   3.13656  -0.40992  60.32162
      20 2002 12 21  0  1 13  66  3.8013    158.30108   1320.49885   1016.01838     -9.42156      7.55548     -1.59990    177.9    149.5      6.6     -6.0    528.1     72.4    149.2    149.2 149.18887 149.18887   0.00000   0.00000   0.00000   0.00000   3.13628  -0.40992  60.27346
      21 2002 12 21  0  1 16 864  3.7986    158.33297   1321.11531   1016.24382     -9.68754      7.93084     -1.64042    177.9    149.5      6.6     -6.1    528.2     72.4    149.2    149.2 149.18887 149.18887   0.00000   0.00000   0.00000   0.00000   3.13600  -0.40992  60.24862
      22 2002 12 21  0  1 20 660  3.7959    158.35758   1321.71733   1016.46818     -9.95284      8.49633     -1.67687    177.9    149.5      6.6     -6.1    528.3     72.3    149.2    149.2 149.18887 149.18887   0.00000   0.00000   0.00000   0.00000   3.13573  -0.40992  60.20045
      23 2002 12 21  0  1 24 454  3.7938    158.37328   1322.30550   1016.69137    -10.20066      8.96769     -1.70850    177.9    149.5      6.6     -6.1    528.4     72.3    149.2    149.2 149.18887 149.18887   0.00000   0.00000   0.00000   0.00000   3.13545  -0.40992  60.17571
      24 2002 12 21  0  1 28 246  3.7923    158.38689   1322.88096   1016.91333    -10.43282      9.48257     -1.73378    177.9    149.5      6.5     -6.1    528.5     72.3    149.2    149.2 149.18887 149.18887   0.00000   0.00000   0.00000   0.00000   3.13518  -0.40992  60.12768
      25 2002 12 21  0  1 32  38  3.7914    158.40648   1323.44438   1017.13401    -10.65043     10.21032     -1.75307    177.9    149.5      6.5     -6.1    528.6     72.2    149.2    149.2 149.18887 149.18887   0.00000   0.00000   0.00000   0.00000   3.13490  -0.40992  60.10323
      26 2002 12 21  0  1 35 829  3.7908    158.43279   1324.00076   1017.35333    -10.93438     10.83284     -1.76647    177.9    149.5      6.5     -6.1    528.8     72.2    149.2    149.2 149.18887 149.18887   0.00000   0.00000   0.00000   0.00000   3.13462  -0.40992  60.05543
      27 2002 12 21  0  1 39 619  3.7902    158.45885   1324.54928   1017.57121    -11.25934     11.30542     -1.77345    177.9    149.5      6.5     -6.1    528.9     72.1    149.2    149.2 149.18887 149.18887   0.00000   0.00000   0.00000   0.00000   3.13435  -0.40992  60.03165
      28 2002 12 21  0  1 43 409  3.7898    158.47807   1325.08955   1017.78761    -11.56929     11.93974     -1.77413    177.9    149.5      6.5     -6.1    529.0     72.1    149.2    149.2 149.18887 149.18887   0.00000   0.00000   0.00000   0.00000   3.13407  -0.40992  59.98380
      29 2002 12 21  0  1 47 199  3.7899    158.49063   1325.62211   1018.00251    -11.86166     12.62420     -1.76774    177.9    149.5      6.5     -6.1    529.1     72.0    149.2    149.2 149.18887 149.18887   0.00000   0.00000   0.00000   0.00000   3.13380  -0.40992  59.96053
      30 2002 12 21  0  1 50 989  3.7907    158.50337   1326.14747   1018.21591    -12.13443     13.16549     -1.75408    177.9    149.5      6.5     -6.1    529.2     72.0    149.2    149.2 149.18887 149.18887   0.00000   0.00000   0.00000   0.00000   3.13352  -0.40992  59.91284
      31 2002 12 21  0  1 54 781  3.7917    158.52246   1326.66575   1018.42777    -12.38622     14.19589     -1.73292    177.9    149.5      6.5     -6.1    529.3     72.0    149.2    149.2 149.18887 149.18887   0.00000   0.00000   0.00000   0.00000   3.13325  -0.40992  59.89002
      32 2002 12 21  0  1 58 574  3.7929    158.54762   1327.17579   1018.63806    -12.61445     15.14693     -1.70453    177.9    149.5      6.4     -6.1    529.5     71.9    149.2    149.2 149.18887 149.18887   0.00000   0.00000   0.00000   0.00000   3.13297  -0.40992  59.84265
      33 2002 12 21  0  2  2 368  3.7939    158.57324   1327.67861   1018.84676    -12.92691     15.93361     -1.66842    177.9    149.5      6.4     -6.1    529.5     72.0    149.2    149.2 149.18887 149.18887   0.00000   0.00000   0.00000   0.00000   3.13269  -0.40992  59.82045
      34 2002 12 21  0  2  6 163  3.7950    158.59464   1328.17459   1019.05398    -13.26440     16.50190     -1.62406    177.9    149.5      6.4     -6.2    529.5     72.1    147.7    147.7 147.72591 147.72591   0.00000   0.00000   0.00000   0.00000   3.13242  -0.40992  59.77313
      35 2002 12 21  0  2  9 957  3.7939    158.61268   1328.66346   1019.25953    -13.58411     17.39010     -1.57236    177.9    149.5      6.4     -6.2    529.6     72.2    147.7    147.7 147.72591 147.72591   0.00000   0.00000   0.00000   0.00000   3.13214  -0.40992  59.75159
      36 2002 12 21  0  2 13 752  3.7952    158.63237   1329.14587   1019.46349    -13.88113     18.29215     -1.51262    177.9    149.5      6.4     -6.2    529.6     72.3    147.7    147.7 147.72591 147.72591   0.00000   0.00000   0.00000   0.00000   3.13187  -0.40992  59.70424
      37 2002 12 21  0  2 17 549  3.7966    158.65737   1329.62185   1019.66585    -14.14824     18.97015     -1.44538    177.9    149.5      6.4     -6.2    529.6     72.4    147.7    147.7 147.72591 147.72591   0.00000   0.00000   0.00000   0.00000   3.13159  -0.40992  59.68332
      38 2002 12 21  0  2 21 347  3.7980    158.68657   1330.36901   1019.86664    -14.54587     20.21357     -1.37072    177.9    149.5      6.4     -6.2    529.6     72.5    147.7    147.7 147.72591 147.72591   0.00000   0.00000   0.00000   0.00000   3.13131  -0.40992  59.63614
      39 2002 12 21  0  2 25 146  3.7994    158.71589   1331.21839   1020.06585    -15.03387     21.39655     -1.28846    177.9    149.5      6.4     -6.2    529.7     72.6    147.7    147.7 147.72591 147.72591   0.00000   0.00000   0.00000   0.00000   3.13104  -0.40992  59.61585
      40 2002 12 21  0  2 28 947  3.8008    158.74300   1332.05852   1020.26354    -15.50867     22.38140     -1.19890    177.9    149.5      6.3     -6.2    529.7     72.7    147.7    147.7 147.72591 147.72591   0.00000   0.00000   0.00000   0.00000   3.13076  -0.40992  59.56871
      41 2002 12 21  0  2 32 749  3.8019    158.76958   1332.88930   1020.45971    -15.96507     23.10232     -1.10236    177.9    149.5      6.3     -6.3    529.7     72.8    147.7    147.7 147.72591 147.72591   0.00000   0.00000   0.00000   0.00000   3.13048  -0.40992  59.54906
      42 2002 12 21  0  2 36 552  3.8029    158.79902   1333.71070   1020.65440    -16.39674     23.82272     -0.99926    177.9    149.5      6.3     -6.3    529.8     72.9    147.7    147.7 147.72591 147.72591   0.00000   0.00000   0.00000   0.00000   3.13021  -0.40992  59.50191
      43 2002 12 21  0  2 40 355  3.8035    158.83238   1334.52289   1020.84766    -16.79783     24.96901     -0.88990    177.9    149.5      6.3     -6.3    529.8     73.0    147.7    147.7 147.72591 147.72591   0.00000   0.00000   0.00000   0.00000   3.12993  -0.40992  59.48293
      44 2002 12 21  0  2 44 159  3.8039    158.86710   1335.32578   1021.03952    -17.27606     25.90964     -0.77427    177.9    149.5      6.3     -6.3    529.8     73.1    147.7    147.7 147.72591 147.72591   0.00000   0.00000   0.00000   0.00000   3.12965  -0.40992  59.43571
      45 2002 12 21  0  2 47 963  3.8041    158.89975   1336.11936   1021.23006    -17.76155     26.83033     -0.65248    177.9    149.5      6.3     -6.3    529.9     73.2    147.7    147.7 147.72591 147.72591   0.00000   0.00000   0.00000   0.00000   3.12938  -0.40992  59.41746
      46 2002 12 21  0  2 51 767  3.8043    158.92977   1336.90368   1021.41936    -18.22118     28.28116     -0.52526    177.9    149.5      6.3     -6.3    529.9     73.3    147.7    147.7 147.72591 147.72591   0.00000   0.00000   0.00000   0.00000   3.12910  -0.40992  59.37011
      47 2002 12 21  0  2 55 572  3.8046    158.96003   1337.67880   1021.60752    -18.64574     29.53263     -0.39249    177.9    149.5      6.2     -6.3    529.9     73.5    147.7    147.7 147.72591 147.72591   0.00000   0.00000   0.00000   0.00000   3.12882  -0.40992  59.35263
      48 2002 12 21  0  2 59 377  3.8050    158.99388   1338.44482   1021.79465    -19.02315     30.51898     -0.25418    177.9    149.5      6.2     -6.4    530.0     73.6    147.7    147.7 147.72591 147.72591   0.00000   0.00000   0.00000   0.00000   3.12855  -0.40992  59.30510
      49 2002 12 21  0  3  3 182  3.8056    159.03175   1339.20162   1021.98087    -19.40157     31.20187     -0.11050    177.9    149.5      6.2     -6.3    530.0     73.7    147.7    147.7 147.72591 147.72591   0.00000   0.00000   0.00000   0.00000   3.12827  -0.40992  59.28850
      50 2002 12 21  0  3  6 988  3.8060    159.07051   1339.95374   1022.16656    -19.86736     32.35716      0.03836    177.9    149.5      6.2     -6.3    530.1     73.9    152.5    152.5 152.50470 152.50470   0.00000   0.00000   0.00000   0.00000   3.12799  -0.40992  59.24064
      51 2002 12 21  0  3 10 791  3.8026    159.10686   1340.69729   1022.35151    -20.29727     33.60077      0.19199    177.9    149.5      6.3     -6.3    530.2     74.1    152.5    152.5 152.50470 152.50470   0.00000   0.00000   0.00000   0.00000   3.12772  -0.40992  59.22498
      52 2002 12 21  0  3 14 593  3.8021    159.14024   1341.43309   1022.53595    -20.68084     34.59018      0.35150    177.9    149.5      6.3     -6.3    530.3     74.3    152.5    152.5 152.50470 152.50470   0.00000   0.00000   0.00000   0.00000   3.12744  -0.40992  59.17718
      53 2002 12 21  0  3 18 394  3.8011    159.17258   1342.16117   1022.72000    -21.00591     35.67686      0.51634    177.9    149.5      6.3     -6.3    530.4     74.5    152.5    152.5 152.50470 152.50470   0.00000   0.00000   0.00000   0.00000   3.12716  -0.40992  59.16252
      54 2002 12 21  0  3 22 194  3.7998    159.20585   1342.88196   1022.90380    -21.29655     37.22795      0.68696    177.9    149.5      6.3     -6.2    530.5     74.7    152.5    152.5 152.50470 152.50470   0.00000   0.00000   0.00000   0.00000   3.12689  -0.40992  59.11405
      55 2002 12 21  0  3 25 993  3.7986    159.24047   1343.59635   1023.08755    -21.71989     38.54425      0.86378    177.9    149.5      6.3     -6.2    530.6     74.9    152.5    152.5 152.50470 152.50470   0.00000   0.00000   0.00000   0.00000   3.12661  -0.40992  59.10035
      56 2002 12 21  0  3 29 790  3.7977    159.27530   1344.30491   1023.27145    -22.09763     39.55522      1.04702    177.9    149.5      6.3     -6.2    530.7     75.1    152.5    152.5 152.50470 152.50470   0.00000   0.00000   0.00000   0.00000   3.12634  -0.40992  59.05130
      57 2002 12 21  0  3 33 587  3.7972    159.30884   1345.00853   1023.45571    -22.41883     40.34555      1.23690    177.9    149.5      6.3     -6.2    530.7     75.3    152.5    152.5 152.50470 152.50470   0.00000   0.00000   0.00000   0.00000   3.12606  -0.40992  59.03858
      58 2002 12 21  0  3 37 385  3.7970    159.34113   1345.70812   1023.64057    -22.67016     41.89723      1.43396    177.9    149.5      6.3     -6.2    530.8     75.5    152.5    152.5 152.50470 152.50470   0.00000   0.00000   0.00000   0.00000   3.12578  -0.40992  58.98906
      59 2002 12 21  0  3 41 181  3.7969    159.37361   1346.40469   1023.82623    -22.99711     43.22825      1.63798    177.9    149.5      6.3     -6.1    530.9     75.7    152.5    152.5 152.50470 152.50470   0.00000   0.00000   0.00000   0.00000   3.12551  -0.40992  58.97747
      60 2002 12 21  0  3 44 978  3.7966    159.40716   1347.09930   1024.01291    -23.35894     44.26336      1.84956    177.9    149.5      6.3     -6.1    531.0     75.9    152.5    152.5 152.50470 152.50470   0.00000   0.00000   0.00000   0.00000   3.12523  -0.40992  58.92755
      61 2002 12 21  0  3 48 774  3.7958    159.44091   1347.79305   1024.20078    -23.66327     45.53243      2.06897    177.9    149.5      6.4     -6.1    531.1     76.1    152.5    152.5 152.50470 152.50470   0.00000   0.00000   0.00000   0.00000   3.12496  -0.40992  58.91679
      62 2002 12 21  0  3 52 568  3.7947    159.47318   1348.48715   1024.39004    -23.94104     47.13740      2.29592    177.9    149.5      6.4     -6.1    531.2     76.3    152.5    152.5 152.50470 152.50470   0.00000   0.00000   0.00000   0.00000   3.12468  -0.40992  58.86696
      63 2002 12 21  0  3 56 362  3.7932    159.50324   1349.18290   1024.58087    -24.35962     48.50482      2.53035    177.9    149.5      6.4     -6.1    531.3     76.5    152.5    152.5 152.50470 152.50470   0.00000   0.00000   0.00000   0.00000   3.12440  -0.40992  58.85692
      64 2002 12 21  0  4  0 153  3.7914    159.53215   1349.88177   1024.77345    -24.72920     49.58047      2.77215    177.9    149.5      6.4     -6.0    531.4     76.7    152.5    152.5 152.50470 152.50470   0.00000   0.00000   0.00000   0.00000   3.12413  -0.40992  58.80745
      65 2002 12 21  0  4  3 943  3.7897    159.56163   1350.57938   1024.96757    -25.03951     50.76292      3.02081    177.9    149.5      6.3     -6.1    531.5     76.8    163.8    163.8 163.80276 163.80276   0.00000   0.00000   0.00000   0.00000   3.12385  -0.40992  58.79829
      66 2002 12 21  0  4  7 736  3.7930    159.59205   1351.28297   1025.16395    -25.39421     52.36389      3.27665    177.9    149.5      6.3     -6.1    531.7     76.8    163.8    163.8 163.80276 163.80276   0.00000   0.00000   0.00000   0.00000   3.12358  -0.40992  58.74920
      67 2002 12 21  0  4 11 528  3.7918    159.62209   1351.99322   1025.36252    -25.78496     53.74778      3.53749    177.9    149.5      6.2     -6.1    531.8     76.8    163.8    163.8 163.80276 163.80276   0.00000   0.00000   0.00000   0.00000   3.12330  -0.40992  58.74063
      68 2002 12 21  0  4 15 318  3.7909    159.65031   1352.71221   1025.56348    -26.12298     54.85828      3.80295    177.9    149.5      6.2     -6.1    532.0     76.9    163.8    163.8 163.80276 163.80276   0.00000   0.00000   0.00000   0.00000   3.12303  -0.40992  58.69088
      69 2002 12 21  0  4 19 109  3.7904    159.67666   1353.44153   1025.76693    -26.39795     56.34384      4.07217    177.9    149.5      6.1     -6.2    532.1     76.9    163.8    163.8 163.80276 163.80276   0.00000   0.00000   0.00000   0.00000   3.12275  -0.40992  58.68310
      70 2002 12 21  0  4 22 899  3.7900    159.70250   1354.18257   1025.97299    -26.76921     57.94731      4.34395    177.9    149.5      6.1     -6.2    532.3     77.0    163.8    163.8 163.80276 163.80276   0.00000   0.00000   0.00000   0.00000   3.12247  -0.40992  58.63405
      71 2002 12 21  0  4 26 688  3.7895    159.72923   1354.93662   1026.18166    -27.11574     59.33557      4.61681    177.9    149.5      6.0     -6.2    532.4     77.0    163.8    163.8 163.80276 163.80276   0.00000   0.00000   0.00000   0.00000   3.12220  -0.40992  58.62689
      72 2002 12 21  0  4 30 477  3.7889    159.75693   1355.70477   1026.39298    -27.40335     60.47553      4.88951    177.9    149.5      5.9     -6.2    532.6     77.0    163.8    163.8 163.80276 163.80276   0.00000   0.00000   0.00000   0.00000   3.12192  -0.40992  58.57798
      73 2002 12 21  0  4 34 265  3.7881    159.78442   1356.48798   1026.60691    -27.68999     62.02281      5.16074    177.9    149.5      5.9     -6.3    532.7     77.1    163.8    163.8 163.80276 163.80276   0.00000   0.00000   0.00000   0.00000   3.12165  -0.40992  58.57127
      74 2002 12 21  0  4 38  53  3.7871    159.81052   1357.28698   1026.82341    -28.02344     63.59490      5.42923    177.9    149.5      5.8     -6.3    532.8     77.1    163.8    163.8 163.80276 163.80276   0.00000   0.00000   0.00000   0.00000   3.12137  -0.40992  58.52270
      75 2002 12 21  0  4 41 839  3.7860    159.83534   1358.10228   1027.04239    -28.29731     64.97252      5.69360    177.9    149.5      5.8     -6.3    533.0     77.1    163.8    163.8 163.80276 163.80276   0.00000   0.00000   0.00000   0.00000   3.12110  -0.40992  58.51642
      76 2002 12 21  0  4 45 623  3.7848    159.86011   1358.93422   1027.26378    -28.56139     66.14783      5.95256    177.9    149.5      5.7     -6.3    533.1     77.2    163.8    163.8 163.80276 163.80276   0.00000   0.00000   0.00000   0.00000   3.12082  -0.40992  58.46794
      77 2002 12 21  0  4 49 407  3.7837    159.88596   1359.78289   1027.48745    -28.85796     67.83344      6.20506    177.9    149.5      5.7     -6.4    533.3     77.2    163.8    163.8 163.80276 163.80276   0.00000   0.00000   0.00000   0.00000   3.12055  -0.40992  58.46204
      78 2002 12 21  0  4 53 190  3.7827    159.91295   1360.64812   1027.71329    -29.08980     69.36949      6.45012    177.9    149.5      5.6     -6.4    533.4     77.2    163.8    163.8 163.80276 163.80276   0.00000   0.00000   0.00000   0.00000   3.12027  -0.40992  58.41378
      79 2002 12 21  0  4 56 972  3.7820    159.94017   1361.52943   1027.94114    -29.36157     70.72971      6.68696    177.9    149.5      5.6     -6.4    533.6     77.3    163.8    163.8 163.80276 163.80276   0.00000   0.00000   0.00000   0.00000   3.12000  -0.40992  58.40828
      80 2002 12 21  0  5  0 753  3.7814    159.96678   1362.42622   1028.17089    -29.59051     72.05878      6.91489    177.9    149.5      5.5     -6.4    533.7     77.3    163.8    163.8 163.80276 163.80276   0.00000   0.00000   0.00000   0.00000   3.11972  -0.40992  58.36008
      81 2002 12 21  0  5  4 534  3.7809    159.99281   1363.34406   1028.40289    -29.82312     73.69503      7.13338    177.9    149.5      5.5     -6.4    533.8     77.1    166.0    166.0 166.01184 166.01184   0.00000   0.00000   0.00000   0.00000   3.11945  -0.40992  58.35521
      82 2002 12 21  0  5  8 312  3.7777    160.01893   1364.27611   1028.63650    -30.02110     75.19642      7.34185    177.9    149.5      5.5     -6.4    533.8     76.9    166.0    166.0 166.01184 166.01184   0.00000   0.00000   0.00000   0.00000   3.11917  -0.40992  58.30683
      83 2002 12 21  0  5 12  89  3.7774    160.04575   1365.22109   1028.87162    -30.22790     76.54429      7.54044    177.9    149.5      5.4     -6.5    533.9     76.8    166.0    166.0 166.01184 166.01184   0.00000   0.00000   0.00000   0.00000   3.11890  -0.40992  58.30180
      84 2002 12 21  0  5 15 866  3.7772    160.07317   1366.17706   1029.10808    -30.40714     78.08329      7.72887    177.9    149.5      5.4     -6.5    534.0     76.6    166.0    166.0 166.01184 166.01184   0.00000   0.00000   0.00000   0.00000   3.11862  -0.40992  58.25486
      85 2002 12 21  0  5 19 643  3.7768    160.10067   1367.14219   1029.34567    -30.56548     79.67846      7.90703    177.9    149.5      5.4     -6.5    534.0     76.5    166.0    166.0 166.01184 166.01184   0.00000   0.00000   0.00000   0.00000   3.11835  -0.40992  58.25031
      86 2002 12 21  0  5 23 420  3.7764    160.12796   1368.11470   1029.58426    -30.70158     81.15198      8.07522    177.9    149.5      5.3     -6.5    534.1     76.3    166.0    166.0 166.01184 166.01184   0.00000   0.00000   0.00000   0.00000   3.11807  -0.40992  58.20319
      87 2002 12 21  0  5 27 196  3.7760    160.15532   1369.09274   1029.82371    -30.80561     82.61618      8.23346    177.9    149.5      5.3     -6.5    534.1     76.2    166.0    166.0 166.01184 166.01184   0.00000   0.00000   0.00000   0.00000   3.11780  -0.40992  58.19902
      88 2002 12 21  0  5 30 971  3.7756    160.18321   1370.07449   1030.06393    -30.85578     84.27616      8.38211    177.9    149.5      5.3     -6.5    534.2     76.0    166.0    166.0 166.01184 166.01184   0.00000   0.00000   0.00000   0.00000   3.11752  -0.40992  58.15215
      89 2002 12 21  0  5 34 746  3.7752    160.21174   1371.05820   1030.30479    -30.83268     85.83398      8.52136    177.9    149.5      5.3     -6.5    534.3     75.8    166.0    166.0 166.01184 166.01184   0.00000   0.00000   0.00000   0.00000   3.11725  -0.40992  58.14841
      90 2002 12 21  0  5 38 521  3.7747    160.24056   1372.04217   1030.54625    -30.71517     87.35146      8.65147    177.9    149.5      5.2     -6.5    534.3     75.7    166.0    166.0 166.01184 166.01184   0.00000   0.00000   0.00000   0.00000   3.11697  -0.40992  58.10160
      91 2002 12 21  0  5 42 296  3.7743    160.26925   1373.02482   1030.78824    -30.49690     89.05336      8.77285    177.9    149.5      5.2     -6.5    534.4     75.5    166.0    166.0 166.01184 166.01184   0.00000   0.00000   0.00000   0.00000   3.11670  -0.40992  58.09830
      92 2002 12 21  0  5 46  70  3.7739    160.29787   1374.00476   1031.03073    -30.17135     90.66255      8.88551    177.9    149.5      5.2     -6.5    534.5     75.4    166.0    166.0 166.01184 166.01184   0.00000   0.00000   0.00000   0.00000   3.11643  -0.40992  58.05177
      93 2002 12 21  0  5 49 843  3.7735    160.32699   1374.98078   1031.27367    -29.73333     92.31395      8.98980    177.9    149.5      5.2     -6.5    534.5     75.2    166.0    166.0 166.01184 166.01184   0.00000   0.00000   0.00000   0.00000   3.11615  -0.40992  58.04894
      94 2002 12 21  0  5 53 616  3.7732    160.35707   1375.95190   1031.51708    -29.17657     94.03338      9.08592    177.9    149.5      5.1     -6.5    534.6     75.0    166.0    166.0 166.01184 166.01184   0.00000   0.00000   0.00000   0.00000   3.11588  -0.40992  58.00257
      95 2002 12 21  0  5 57 389  3.7728    160.38804   1376.91729   1031.76092    -28.49390     95.69051      9.17400    177.9    149.5      5.1     -6.5    534.6     74.9    166.0    166.0 166.01184 166.01184   0.00000   0.00000   0.00000   0.00000   3.11560  -0.40992  58.00021
      96 2002 12 21  0  6  1 162  3.7725    160.41924   1377.87931   1032.00520    -27.67913     97.48059      9.25429    177.9    149.5      5.2     -6.5    534.7     74.7    166.0    166.0 166.01184 166.01184   0.00000   0.00000   0.00000   0.00000   3.11533  -0.40992  57.95416
      97 2002 12 21  0  6  4 934  3.7723    160.45001   1378.83635   1032.25009    -26.72661     99.20173      9.32679    177.9    149.5      5.3     -6.4    535.0     74.6    160.0    160.0 159.95217 159.95217   0.00000   0.00000   0.00000   0.00000   3.11505  -0.40992  57.95255
      98 2002 12 21  0  6  8 708  3.7739    160.48022   1379.78252   1032.49555    -25.63069    101.02886      9.39159    177.9    149.5      5.5     -6.3    535.2     74.6    160.0    160.0 159.95217 159.95217   0.00000   0.00000   0.00000   0.00000   3.11478  -0.40992  57.90664
      99 2002 12 21  0  6 12 481  3.7736    160.51027   1380.72121   1032.74139    -24.38771    102.83134      9.44860    177.9    149.5      5.6     -6.2    535.4     74.5    160.0    160.0 159.95217 159.95217   0.00000   0.00000   0.00000   0.00000   3.11451  -0.40992  57.90513
     100 2002 12 21  0  6 16 255  3.7733    160.54069   1381.65289   1032.98755    -22.99444    104.66174      9.49773    177.8    149.5      5.8     -6.2    535.7     74.4    160.0    160.0 159.95217 159.95217   0.00000   0.00000   0.00000   0.00000   3.11423  -0.40992  57.86035
     101 2002 12 21  0  6 20  28  3.7729    160.57165   1382.57768   1033.23391    -21.44871    106.53250      9.53878    177.8    149.5      6.0     -6.1    535.9     74.3    160.0    160.0 159.95217 159.95217   0.00000   0.00000   0.00000   0.00000   3.11396  -0.40992  57.85935
     102 2002 12 21  0  6 23 800  3.7724    160.60289   1383.49572   1033.48032    -19.74969    108.40812      9.57175    177.8    149.5      6.1     -6.0    536.1     74.2    160.0    160.0 159.95217 159.95217   0.00000   0.00000   0.00000   0.00000   3.11368  -0.40992  57.81442
     103 2002 12 21  0  6 27 572  3.7720    160.63407   1384.40715   1033.72657    -17.89796    110.29539      9.59663    177.8    149.5      6.3     -6.0    536.3     74.1    160.0    160.0 159.95217 159.95217   0.00000   0.00000   0.00000   0.00000   3.11341  -0.40992  57.81383
     104 2002 12 21  0  6 31 343  3.7715    160.66510   1385.31201   1033.97245    -15.89560    112.20638      9.61347    177.8    149.5      6.5     -5.9    536.6     74.0    160.0    160.0 159.95217 159.95217   0.00000   0.00000   0.00000   0.00000   3.11313  -0.40992  57.76940
     105 2002 12 21  0  6 35 115  3.7710    160.69613   1386.21026   1034.21764    -13.74616    114.17642      9.62224    177.8    149.5      6.6     -5.8    536.8     73.9    160.0    160.0 159.95217 159.95217   0.00000   0.00000   0.00000   0.00000   3.11286  -0.40992  57.76931
     106 2002 12 21  0  6 38 885  3.7706    160.72730   1387.10165   1034.46183    -12.32717    116.07182      9.62279    177.8    149.5      6.8     -5.7    537.0     73.8    160.0    160.0 159.95217 159.95217   0.00000   0.00000   0.00000   0.00000   3.11258  -0.40992  57.72515
     107 2002 12 21  0  6 42 655  3.7701    160.75851   1387.98576   1034.70460    -12.83788    117.88908      9.61501    177.8    149.5      7.0     -5.7    537.3     73.7    160.0    160.0 159.95217 159.95217   0.00000   0.00000   0.00000   0.00000   3.11231  -0.40992  57.72555
     108 2002 12 21  0  6 46 425  3.7696    160.78954   1388.86190   1034.94551    -13.35325    119.62474      9.59914    177.8    149.5      7.1     -5.6    537.5     73.6    160.0    160.0 159.95217 159.95217   0.00000   0.00000   0.00000   0.00000   3.11204  -0.40992  57.68183
     109 2002 12 21  0  6 50 194  3.7691    160.82026   1389.72911   1035.18403    -13.69780    121.27543      9.57512    177.8    149.5      7.3     -5.5    537.7     73.5    160.0    160.0 159.95217 159.95217   0.00000   0.00000   0.00000   0.00000   3.11176  -0.40992  57.68274
     110 2002 12 21  0  6 53 962  3.7685    160.85075   1390.58502   1035.41965    -13.95405    122.83701      9.54314    177.8    149.5      7.4     -5.4    537.9     73.4    160.0    160.0 159.95217 159.95217   0.00000   0.00000   0.00000   0.00000   3.11149  -0.40992  57.63934
     111 2002 12 21  0  6 57 730  3.7679    160.88122   1391.42910   1035.65171    -14.16659    124.30569      9.50319    177.8    149.5      7.6     -5.4    538.2     73.3    160.0    160.0 159.95217 159.95217   0.00000   0.00000   0.00000   0.00000   3.11121  -0.40992  57.64072
     112 2002 12 21  0  7  1 498  3.7673    160.91173   1392.25961   1035.87961    -14.86476    125.67745      9.45558    177.8    149.5      7.7     -5.3    538.3     73.2    160.0    160.0 159.95217 159.95217   0.00000   0.00000   0.00000   0.00000   3.11094  -0.40992  57.59774
     113 2002 12 21  0  7  5 264  3.7666    160.94210   1393.05990   1036.10228    -15.62669    126.94812      9.40033    177.8    149.5      7.7     -5.4    538.3     73.2    152.5    152.5 152.53066 152.53066   0.00000   0.00000   0.00000   0.00000   3.11067  -0.40992  57.59974
     114 2002 12 21  0  7  9  34  3.7693    160.97213   1393.83852   1036.31935    -16.21216    128.11355      9.33806    177.8    149.5      7.6     -5.4    538.3     73.1    152.5    152.5 152.53066 152.53066   0.00000   0.00000   0.00000   0.00000   3.11039  -0.40992  57.55702
     115 2002 12 21  0  7 12 802  3.7687    161.00175   1394.59405   1036.53004    -16.58970    129.16874      9.26806    177.8    149.5      7.6     -5.4    538.3     73.1    152.5    152.5 152.53066 152.53066   0.00000   0.00000   0.00000   0.00000   3.11012  -0.40992  57.55944
     116 2002 12 21  0  7 16 570  3.7680    161.03113   1395.32409   1036.73374    -16.74826    130.10987      9.19116    177.8    149.5      7.6     -5.5    538.3     73.0    152.5    152.5 152.53066 152.53066   0.00000   0.00000   0.00000   0.00000   3.10984  -0.40992  57.51656
     117 2002 12 21  0  7 20 338  3.7674    161.06052   1396.02568   1036.92973    -16.88432    130.93275      9.10759    177.8    149.5      7.6     -5.5    538.3     72.9    152.5    152.5 152.53066 152.53066   0.00000   0.00000   0.00000   0.00000   3.10957  -0.40992  57.51950
     118 2002 12 21  0  7 24 104  3.7668    161.09000   1396.69562   1037.11736    -17.76203    131.63313      9.01739    177.8    149.5      7.5     -5.5    538.3     72.9    152.5    152.5 152.53066 152.53066   0.00000   0.00000   0.00000   0.00000   3.10930  -0.40992  57.47735
     119 2002 12 21  0  7 27 871  3.7663    161.11945   1397.33068   1037.29591    -18.45814    132.20703      8.92090    177.8    149.5      7.5     -5.6    538.3     72.8    152.5    152.5 152.53066 152.53066   0.00000   0.00000   0.00000   0.00000   3.10902  -0.40992  57.48080
     120 2002 12 21  0  7 31 636  3.7657    161.14865   1397.92767   1037.46480    -18.92198    132.65073      8.81855    177.8    149.5      7.5     -5.6    538.3     72.7    152.5    152.5 152.53066 152.53066   0.00000   0.00000   0.00000   0.00000   3.10875  -0.40992  57.43886
     121 2002 12 21  0  7 35 401  3.7651    161.17755   1398.48337   1037.62341    -19.14209    132.96072      8.71064    177.8    149.5      7.4     -5.6    538.3     72.7    152.5    152.5 152.53066 152.53066   0.00000   0.00000   0.00000   0.00000   3.10847  -0.40992  57.44270
     122 2002 12 21  0  7 39 166  3.7645    161.20624   1398.99475   1037.77123    -19.34076    133.13385      8.59747    177.8    149.5      7.4     -5.7    538.3     72.6    152.5    152.5 152.53066 152.53066   0.00000   0.00000   0.00000   0.00000   3.10820  -0.40992  57.40116
     123 2002 12 21  0  7 42 930  3.7639    161.23486   1399.45891   1037.90779    -20.27896    133.16745      8.47923    177.8    149.5      7.4     -5.7    538.3     72.6    152.5    152.5 152.53066 152.53066   0.00000   0.00000   0.00000   0.00000   3.10793  -0.40992  57.40538
     124 2002 12 21  0  7 46 693  3.7632    161.26343   1399.87324   1038.03271    -21.01861    133.05926      8.35618    177.8    149.5      7.3     -5.7    538.3     72.5    152.5    152.5 152.53066 152.53066   0.00000   0.00000   0.00000   0.00000   3.10765  -0.40992  57.36403
     125 2002 12 21  0  7 50 456  3.7625    161.29185   1400.23538   1038.14567    -21.51714    132.80762      8.22888    177.8    149.5      7.3     -5.7    538.3     72.4    152.5    152.5 152.53066 152.53066   0.00000   0.00000   0.00000   0.00000   3.10738  -0.40992  57.36858
     126 2002 12 21  0  7 54 217  3.7618    161.32004   1400.54330   1038.24645    -21.75158    132.41155      8.09752    177.8    149.5      7.3     -5.8    538.3     72.4    152.5    152.5 152.53066 152.53066   0.00000   0.00000   0.00000   0.00000   3.10711  -0.40992  57.32753
     127 2002 12 21  0  7 57 978  3.7611    161.34803   1400.79534   1038.33491    -21.71876    131.87074      7.96266    177.8    149.5      7.3     -5.8    538.3     72.3    152.5    152.5 152.53066 152.53066   0.00000   0.00000   0.00000   0.00000   3.10683  -0.40992  57.33239
     128 2002 12 21  0  8  1 739  3.7604    161.37598   1400.99021   1038.41102    -21.55659    131.18556      7.82438    177.8    149.5      7.2     -5.8    538.1     72.3    152.5    152.5 152.53066 152.53066   0.00000   0.00000   0.00000   0.00000   3.10656  -0.40992  57.29149
     129 2002 12 21  0  8  5 499  3.7597    161.40401   1401.13912   1038.47576    -22.35287    130.35726      7.68321    177.8    149.5      7.3     -5.8    537.7     72.4    149.4    149.4 149.40524 149.40524   0.00000   0.00000   0.00000   0.00000   3.10629  -0.40992  57.29677
     130 2002 12 21  0  8  9 250  3.7510    161.43209   1401.23107   1038.52840    -22.92958    129.38908      7.53827    177.8    149.5      7.3     -5.8    537.3     72.4    149.4    149.4 149.40524 149.40524   0.00000   0.00000   0.00000   0.00000   3.10601  -0.40992  57.25611
     131 2002 12 21  0  8 13   0  3.7504    161.46018   1401.26651   1038.56933    -23.24884    128.28327      7.39232    177.8    149.5      7.3     -5.8    536.9     72.5    149.4    149.4 149.40524 149.40524   0.00000   0.00000   0.00000   0.00000   3.10574  -0.40992  57.26146
     132 2002 12 21  0  8 16 750  3.7498    161.48820   1401.24531   1038.59882    -23.27982    127.04253      7.24429    177.8    149.5      7.3     -5.8    536.5     72.6    149.4    149.4 149.40524 149.40524   0.00000   0.00000   0.00000   0.00000   3.10547  -0.40992  57.22129
     133 2002 12 21  0  8 20 499  3.7491    161.51616   1401.16827   1038.61721    -23.03715    125.67086      7.09455    177.8    149.5      7.3     -5.8    536.1     72.6    149.4    149.4 149.40524 149.40524   0.00000   0.00000   0.00000   0.00000   3.10520  -0.40992  57.22692
     134 2002 12 21  0  8 24 247  3.7485    161.54416   1401.03676   1038.62501    -23.05236    124.17284      6.94362    177.8    149.5      7.3     -5.8    535.7     72.7    149.4    149.4 149.40524 149.40524   0.00000   0.00000   0.00000   0.00000   3.10492  -0.40992  57.18685
     135 2002 12 21  0  8 27 995  3.7479    161.57228   1400.85256   1038.62274    -23.67873    122.55364      6.79162    177.8    149.5      7.3     -5.8    535.3     72.7    149.4    149.4 149.40524 149.40524   0.00000   0.00000   0.00000   0.00000   3.10465  -0.40992  57.19270
     136 2002 12 21  0  8 31 743  3.7473    161.60054   1400.61784   1038.61104    -24.07264    120.81927      6.63897    177.8    149.5      7.3     -5.8    534.9     72.8    149.4    149.4 149.40524 149.40524   0.00000   0.00000   0.00000   0.00000   3.10438  -0.40992  57.15276
     137 2002 12 21  0  8 35 489  3.7468    161.62889   1400.33513   1038.59055    -24.20141    118.97623      6.48580    177.8    149.5      7.3     -5.8    534.5     72.8    149.4    149.4 149.40524 149.40524   0.00000   0.00000   0.00000   0.00000   3.10411  -0.40992  57.15881
     138 2002 12 21  0  8 39 236  3.7462    161.65730   1400.00730   1038.56203    -24.05883    117.03148      6.33243    177.8    149.5      7.3     -5.7    534.1     72.9    149.4    149.4 149.40524 149.40524   0.00000   0.00000   0.00000   0.00000   3.10383  -0.40992  57.11897
     139 2002 12 21  0  8 42 981  3.7456    161.68580   1399.63759   1038.52621    -23.65469    114.99247      6.17917    177.8    149.5      7.3     -5.7    533.7     73.0    149.4    149.4 149.40524 149.40524   0.00000   0.00000   0.00000   0.00000   3.10356  -0.40992  57.12520
     140 2002 12 21  0  8 46 726  3.7451    161.71445   1399.22952   1038.48390    -23.37082    112.86701      6.02621    177.8    149.5      7.3     -5.7    533.3     73.0    149.4    149.4 149.40524 149.40524   0.00000   0.00000   0.00000   0.00000   3.10329  -0.40992  57.08540
     141 2002 12 21  0  8 50 471  3.7445    161.74327   1398.78681   1038.43590    -23.88074    110.66326      5.87384    177.8    149.5      7.3     -5.7    532.9     73.1    149.4    149.4 149.40524 149.40524   0.00000   0.00000   0.00000   0.00000   3.10302  -0.40992  57.09175
     142 2002 12 21  0  8 54 215  3.7439    161.77221   1398.31341   1038.38308    -24.17146    108.38966      5.72225    177.8    149.5      7.4     -5.7    532.5     73.1    149.4    149.4 149.40524 149.40524   0.00000   0.00000   0.00000   0.00000   3.10274  -0.40992  57.05205
     143 2002 12 21  0  8 57 958  3.7433    161.80119   1397.81345   1038.32623    -24.21837    106.05483      5.57159    177.8    149.5      7.4     -5.7    532.1     73.2    149.4    149.4 149.40524 149.40524   0.00000   0.00000   0.00000   0.00000   3.10247  -0.40992  57.05860
     144 2002 12 21  0  9  1 701  3.7427    161.83021   1397.29122   1038.26623    -24.00928    103.66755      5.42223    177.8    149.5      7.3     -5.7    531.8     73.2    149.4    149.4 149.40524 149.40524   0.00000   0.00000   0.00000   0.00000   3.10220  -0.40992  57.01904
     145 2002 12 21  0  9  5 443  3.7421    161.85933   1396.74880   1038.20386    -23.56242    101.23664      5.27433    177.8    149.5      7.3     -5.7    531.5     73.3    150.7    150.7 150.69643 150.69643   0.00000   0.00000   0.00000   0.00000   3.10193  -0.40992  57.02584
     146 2002 12 21  0  9  9 190  3.7472    161.88862   1396.19154   1038.13983    -24.02552     98.76747      5.12862    177.8    149.5      7.3     -5.7    531.2     73.3    150.7    150.7 150.69643 150.69643   0.00000   0.00000   0.00000   0.00000   3.10165  -0.40992  56.98621
     147 2002 12 21  0  9 12 937  3.7467    161.91806   1395.62418   1038.07495    -24.39481     96.27138      4.98384    177.8    149.5      7.2     -5.7    530.9     73.3    150.7    150.7 150.69643 150.69643   0.00000   0.00000   0.00000   0.00000   3.10138  -0.40992  56.99313
     148 2002 12 21  0  9 16 683  3.7461    161.94756   1395.05136   1038.01011    -24.52143     93.75783      4.84107    177.8    149.5      7.2     -5.7    530.7     73.4    150.7    150.7 150.69643 150.69643   0.00000   0.00000   0.00000   0.00000   3.10111  -0.40992  56.95379
     149 2002 12 21  0  9 20 428  3.7456    161.97702   1394.47776   1037.94601    -24.39806     91.23542      4.70042    177.8    149.5      7.1     -5.7    530.4     73.4    150.7    150.7 150.69643 150.69643   0.00000   0.00000   0.00000   0.00000   3.10084  -0.40992  56.96089
     150 2002 12 21  0  9 24 173  3.7451    162.00639   1393.90767   1037.88340    -24.08343     88.71262      4.56214    177.8    149.5      7.1     -5.6    530.1     73.4    150.7    150.7 150.69643 150.69643   0.00000   0.00000   0.00000   0.00000   3.10056  -0.40992  56.92155
     151 2002 12 21  0  9 27 918  3.7447    162.03572   1393.34530   1037.82289    -24.60882     86.19758      4.42627    177.8    149.5      7.0     -5.6    529.8     73.5    150.7    150.7 150.69643 150.69643   0.00000   0.00000   0.00000   0.00000   3.10029  -0.40992  56.92881
     152 2002 12 21  0  9 31 662  3.7442    162.06509   1392.79468   1037.76514    -25.08970     83.69813      4.29302    177.8    149.5      7.0     -5.6    529.6     73.5    150.7    150.7 150.69643 150.69643   0.00000   0.00000   0.00000   0.00000   3.10002  -0.40992  56.88964
     153 2002 12 21  0  9 35 406  3.7438    162.09457   1392.25965   1037.71069    -25.35416     81.22164      4.16270    177.8    149.5      6.9     -5.6    529.3     73.5    150.7    150.7 150.69643 150.69643   0.00000   0.00000   0.00000   0.00000   3.09975  -0.40992  56.89707
     154 2002 12 21  0  9 39 149  3.7433    162.12417   1391.74383   1037.66008    -25.39233     78.77489      4.03529    177.8    149.5      6.9     -5.6    529.0     73.6    150.7    150.7 150.69643 150.69643   0.00000   0.00000   0.00000   0.00000   3.09948  -0.40992  56.85797
     155 2002 12 21  0  9 42 892  3.7428    162.15384   1391.25061   1037.61374    -25.21248     76.36450      3.91090    177.8    149.5      6.8     -5.6    528.7     73.6    150.7    150.7 150.69643 150.69643   0.00000   0.00000   0.00000   0.00000   3.09920  -0.40992  56.86557
     156 2002 12 21  0  9 46 635  3.7423    162.18356   1390.78314   1037.57212    -25.25312     73.99669      3.78977    177.8    149.5      6.8     -5.6    528.5     73.6    150.7    150.7 150.69643 150.69643   0.00000   0.00000   0.00000   0.00000   3.09893  -0.40992  56.82662
     157 2002 12 21  0  9 50 376  3.7419    162.21330   1390.34427   1037.53555    -25.73593     71.67717      3.67203    177.8    149.5      6.7     -5.6    528.2     73.7    150.7    150.7 150.69643 150.69643   0.00000   0.00000   0.00000   0.00000   3.09866  -0.40992  56.83438
     158 2002 12 21  0  9 54 118  3.7414    162.24304   1389.93658   1037.50436    -26.02247     69.41104      3.55777    177.8    149.5      6.7     -5.6    527.9     73.7    150.7    150.7 150.69643 150.69643   0.00000   0.00000   0.00000   0.00000   3.09839  -0.40992  56.79551
     159 2002 12 21  0  9 57 859  3.7409    162.27275   1389.56234   1037.47878    -26.11184     67.20286      3.44703    177.8    149.5      6.7     -5.6    527.6     73.8    150.7    150.7 150.69643 150.69643   0.00000   0.00000   0.00000   0.00000   3.09812  -0.40992  56.80343
     160 2002 12 21  0 10  1 599  3.7404    162.30240   1389.22351   1037.45905    -25.99967     65.05662      3.34005    177.8    149.5      6.6     -5.5    527.4     73.8    150.7    150.7 150.69643 150.69643   0.00000   0.00000   0.00000   0.00000   3.09784  -0.40992  56.76470
     161 2002 12 21  0 10  5 339  3.7398    162.33198   1388.91504   1037.44499    -25.99450     62.97565      3.23673    177.8    149.5      6.6     -5.5    527.1     73.9    151.8    151.8 151.79769 151.79769   0.00000   0.00000   0.00000   0.00000   3.09757  -0.40992  56.77283
     162 2002 12 21  0 10  9  88  3.7493    162.36156   1388.64326   1037.43695    -26.34467     60.95907      3.13880    177.8    149.5      6.6     -5.4    526.8     73.9    151.8    151.8 151.79769 151.79769   0.00000   0.00000   0.00000   0.00000   3.09730  -0.40992  56.73409
     163 2002 12 21  0 10 12 837  3.7488    162.39113   1388.40998   1037.43495    -26.51345     59.01235      3.04325    177.8    149.5      6.6     -5.3    526.5     74.0    151.8    151.8 151.79769 151.79769   0.00000   0.00000   0.00000   0.00000   3.09703  -0.40992  56.74249
     164 2002 12 21  0 10 16 585  3.7482    162.42070   1388.21605   1037.43913    -26.50588     57.13796      2.95179    177.8    149.5      6.6     -5.2    526.3     74.1    151.8    151.8 151.79769 151.79769   0.00000   0.00000   0.00000   0.00000   3.09675  -0.40992  56.70335
     165 2002 12 21  0 10 20 333  3.7477    162.45022   1388.06196   1037.44950    -26.32149     55.33705      2.86447    177.8    149.5      6.6     -5.2    526.0     74.1    151.8    151.8 151.79769 151.79769   0.00000   0.00000   0.00000   0.00000   3.09648  -0.40992  56.71191
     166 2002 12 21  0 10 24  80  3.7473    162.47965   1387.94785   1037.46603    -26.43408     53.61030      2.78137    177.8    149.5      6.6     -5.1    525.7     74.2    151.8    151.8 151.79769 151.79769   0.00000   0.00000   0.00000   0.00000   3.09621  -0.40992  56.67324
     167 2002 12 21  0 10 27 827  3.7468    162.50896   1387.87349   1037.48864    -26.51528     51.95795      2.70254    177.8    149.5      6.6     -5.0    525.4     74.3    151.8    151.8 151.79769 151.79769   0.00000   0.00000   0.00000   0.00000   3.09594  -0.40992  56.68200
     168 2002 12 21  0 10 31 573  3.7463    162.53816   1387.83843   1037.51724    -26.43829     50.37978      2.62813    177.8    149.5      6.5     -4.9    525.2     74.3    151.8    151.8 151.79769 151.79769   0.00000   0.00000   0.00000   0.00000   3.09566  -0.40992  56.64327
     169 2002 12 21  0 10 35 319  3.7458    162.56729   1387.84194   1037.55169    -26.20917     48.87517      2.55814    177.8    149.5      6.5     -4.9    524.9     74.4    151.8    151.8 151.79769 151.79769   0.00000   0.00000   0.00000   0.00000   3.09539  -0.40992  56.65216
     170 2002 12 21  0 10 39  64  3.7453    162.59640   1387.88308   1037.59186    -26.20999     47.44312      2.49257    177.8    149.5      6.5     -4.8    524.6     74.5    151.8    151.8 151.79769 151.79769   0.00000   0.00000   0.00000   0.00000   3.09512  -0.40992  56.61367
     171 2002 12 21  0 10 42 809  3.7448    162.62550   1387.96072   1037.63755    -26.08414     46.08228      2.43150    177.8    149.5      6.5     -4.7    524.3     74.5    151.8    151.8 151.79769 151.79769   0.00000   0.00000   0.00000   0.00000   3.09485  -0.40992  56.62272
     172 2002 12 21  0 10 46 554  3.7443    162.65457   1388.07354   1037.68861    -25.82227     44.79098      2.37492    177.8    149.5      6.5     -4.6    524.1     74.6    151.8    151.8 151.79769 151.79769   0.00000   0.00000   0.00000   0.00000   3.09457  -0.40992  56.58424
     173 2002 12 21  0 10 50 297  3.7437    162.68360   1388.22000   1037.74482    -25.63520     43.56728      2.32273    177.8    149.5      6.5     -4.6    523.8     74.7    151.8    151.8 151.79769 151.79769   0.00000   0.00000   0.00000   0.00000   3.09430  -0.40992  56.59341
     174 2002 12 21  0 10 54  40  3.7432    162.71258   1388.39841   1037.80599    -25.36654     42.40900      2.27501    177.8    149.5      6.5     -4.5    523.5     74.7    151.8    151.8 151.79769 151.79769   0.00000   0.00000   0.00000   0.00000   3.09403  -0.40992  56.55515
     175 2002 12 21  0 10 57 783  3.7426    162.74152   1388.60699   1037.87189    -25.04312     41.31380      2.23172    177.8    149.5      6.5     -4.4    523.2     74.8    151.8    151.8 151.79769 151.79769   0.00000   0.00000   0.00000   0.00000   3.09376  -0.40992  56.56447
     176 2002 12 21  0 11  1 525  3.7420    162.77042   1388.84383   1037.94234    -24.69644     40.27967      2.19280    177.8    149.5      6.5     -4.4    523.2     74.9    151.8    151.8 151.79769 151.79769   0.00000   0.00000   0.00000   0.00000   3.09349  -0.40992  56.52622
     177 2002 12 21  0 11  5 266  3.7414    162.79927   1389.07815   1038.01565    -24.29488     39.30316      2.15815    177.8    149.5      6.5     -4.5    523.5     75.0    154.2    154.2 154.22984 154.22984   0.00000   0.00000   0.00000   0.00000   3.09321  -0.40992  56.53574
     178 2002 12 21  0 11  9  39  3.7722    162.82824   1389.33411   1038.09350    -23.83482     38.37775      2.13268    177.8    149.5      6.5     -4.6    523.8     75.2    154.2    154.2 154.22984 154.22984   0.00000   0.00000   0.00000   0.00000   3.09294  -0.40992  56.49741
     179 2002 12 21  0 11 12 810  3.7716    162.85720   1389.60929   1038.17477    -23.33333     37.50117      2.10619    177.8    149.5      6.5     -4.7    524.0     75.3    154.2    154.2 154.22984 154.22984   0.00000   0.00000   0.00000   0.00000   3.09266  -0.40992  56.50735
     180 2002 12 21  0 11 16 581  3.7706    162.88614   1389.90162   1038.25963    -22.83520     36.67310      2.08393    177.8    149.5      6.5     -4.7    524.3     75.5    154.2    154.2 154.22984 154.22984   0.00000   0.00000   0.00000   0.00000   3.09239  -0.40992  56.46762
     181 2002 12 21  0 11 20 351  3.7703    162.91510   1390.20934   1038.34792    -22.26448     35.89081      2.06591    177.8    149.5      6.5     -4.8    524.6     75.7    154.2    154.2 154.22984 154.22984   0.00000   0.00000   0.00000   0.00000   3.09212  -0.40992  56.47771
     182 2002 12 21  0 11 24 121  3.7698    162.94407   1390.53041   1038.43953    -21.61636     35.15155      2.05197    177.8    149.5      6.5     -4.9    524.9     75.8    154.2    154.2 154.22984 154.22984   0.00000   0.00000   0.00000   0.00000   3.09184  -0.40992  56.43928
     183 2002 12 21  0 11 27 890  3.7694    162.97302   1390.86278   1038.53425    -20.90354     34.45267      2.04190    177.8    149.5      6.6     -5.0    525.2     76.0    154.2    154.2 154.22984 154.22984   0.00000   0.00000   0.00000   0.00000   3.09157  -0.40992  56.44967
     184 2002 12 21  0 11 31 659  3.7689    163.00194   1391.20457   1038.63198    -20.13843     33.79168      2.03578    177.8    149.5      6.6     -5.1    525.5     76.1    154.2    154.2 154.22984 154.22984   0.00000   0.00000   0.00000   0.00000   3.09129  -0.40992  56.41064
     185 2002 12 21  0 11 35 428  3.7684    163.03085   1391.55397   1038.73253    -19.37514     33.16621      2.03342    177.8    149.5      6.6     -5.2    525.8     76.3    154.2    154.2 154.22984 154.22984   0.00000   0.00000   0.00000   0.00000   3.09102  -0.40992  56.42113
     186 2002 12 21  0 11 39 195  3.7678    163.05976   1391.90930   1038.83582    -19.09849     32.57412      2.03474    177.8    149.5      6.6     -5.3    526.1     76.4    154.2    154.2 154.22984 154.22984   0.00000   0.00000   0.00000   0.00000   3.09075  -0.40992  56.38281
     187 2002 12 21  0 11 42 963  3.7673    163.08870   1392.26902   1038.94170    -18.79855     32.01346      2.03974    177.8    149.5      6.6     -5.4    526.4     76.6    154.2    154.2 154.22984 154.22984   0.00000   0.00000   0.00000   0.00000   3.09047  -0.40992  56.39350
     188 2002 12 21  0 11 46 729  3.7667    163.11765   1392.63176   1039.05011    -18.47974     31.48251      2.04822    177.8    149.5      6.6     -5.4    526.6     76.7    154.2    154.2 154.22984 154.22984   0.00000   0.00000   0.00000   0.00000   3.09020  -0.40992  56.35479
     189 2002 12 21  0 11 50 495  3.7661    163.14661   1392.99627   1039.16091    -18.14632     30.97979      2.06014    177.8    149.5      6.6     -5.5    526.9     76.9    154.2    154.2 154.22984 154.22984   0.00000   0.00000   0.00000   0.00000   3.08992  -0.40992  56.36557
     190 2002 12 21  0 11 54 261  3.7656    163.17557   1393.36143   1039.27409    -17.80199     30.50402      2.07535    177.8    149.5      6.6     -5.6    527.2     77.0    154.2    154.2 154.22984 154.22984   0.00000   0.00000   0.00000   0.00000   3.08965  -0.40992  56.32747
     191 2002 12 21  0 11 58  26  3.7651    163.20454   1393.72630   1039.38953    -17.44969     30.05417      2.09374    177.8    149.5      6.7     -5.7    527.5     77.2    154.2    154.2 154.22984 154.22984   0.00000   0.00000   0.00000   0.00000   3.08938  -0.40992  56.33843
     192 2002 12 21  0 12  1 791  3.7645    163.23356   1394.09007   1039.50723    -17.09236     29.62942      2.11527    177.8    149.5      6.7     -5.8    527.7     77.3    154.2    154.2 154.22984 154.22984   0.00000   0.00000   0.00000   0.00000   3.08910  -0.40992  56.29995
     193 2002 12 21  0 12  5 555  3.7639    163.26261   1394.48744   1039.62906    -16.73270     29.22974      2.13976    177.8    149.5      6.6     -5.8    527.7     77.4    160.1    160.1 160.11407 160.11407   0.00000   0.00000   0.00000   0.00000   3.08883  -0.40992  56.31110
     194 2002 12 21  0 12  9 281  3.7262    163.29148   1394.88432   1039.75217    -16.37862     28.85268      2.16136    177.8    149.5      6.6     -5.9    527.7     77.5    160.1    160.1 160.11407 160.11407   0.00000   0.00000   0.00000   0.00000   3.08856  -0.40992  56.27354
     195 2002 12 21  0 12 13   6  3.7257    163.32032   1395.28199   1039.87799    -16.02610     28.50416      2.19147    177.8    149.5      6.6     -6.0    527.7     77.5    160.1    160.1 160.11407 160.11407   0.00000   0.00000   0.00000   0.00000   3.08829  -0.40992  56.28448
     196 2002 12 21  0 12 16 732  3.7256    163.34916   1395.68042   1040.00618    -15.67580     28.18120      2.22438    177.8    149.5      6.6     -6.0    527.7     77.6    160.1    160.1 160.11407 160.11407   0.00000   0.00000   0.00000   0.00000   3.08802  -0.40992  56.24802
     197 2002 12 21  0 12 20 457  3.7247    163.37801   1396.07907   1040.13658    -15.32842     27.88380      2.25975    177.8    149.5      6.6     -6.1    527.7     77.7    160.1    160.1 160.11407 160.11407   0.00000   0.00000   0.00000   0.00000   3.08775  -0.40992  56.25908
     198 2002 12 21  0 12 24 181  3.7240    163.40688   1396.47788   1040.26921    -14.98427     27.61240      2.29754    177.8    149.5      6.5     -6.2    527.7     77.8    160.1    160.1 160.11407 160.11407   0.00000   0.00000   0.00000   0.00000   3.08747  -0.40992  56.22232
     199 2002 12 21  0 12 27 904  3.7232    163.43581   1396.87690   1040.40400    -14.64314     27.36750      2.33759    177.8    149.5      6.5     -6.2    527.7     77.8    160.1    160.1 160.11407 160.11407   0.00000   0.00000   0.00000   0.00000   3.08720  -0.40992  56.23341
     200 2002 12 21  0 12 31 626  3.7225    163.46476   1397.27627   1040.54099    -14.30466     27.14979      2.37995    177.8    149.5      6.5     -6.3    527.7     77.9    160.1    160.1 160.11407 160.11407   0.00000   0.00000   0.00000   0.00000   3.08693  -0.40992  56.19673
     201 2002 12 21  0 12 35 348  3.7219    163.49372   1397.67615   1040.68014    -13.96817     26.96002      2.42436    177.8    149.5      6.5     -6.4    527.7     78.0    160.1    160.1 160.11407 160.11407   0.00000   0.00000   0.00000   0.00000   3.08666  -0.40992  56.20789
     202 2002 12 21  0 12 39  69  3.7212    163.52266   1398.07677   1040.82147    -13.63268     26.79897      2.47086    177.8    149.5      6.5     -6.4    527.7     78.1    160.1    160.1 160.11407 160.11407   0.00000   0.00000   0.00000   0.00000   3.08639  -0.40992  56.17145
     203 2002 12 21  0 12 42 790  3.7206    163.55160   1398.47836   1040.96494    -13.29706     26.66746      2.51919    177.8    149.5      6.4     -6.5    527.7     78.1    160.1    160.1 160.11407 160.11407   0.00000   0.00000   0.00000   0.00000   3.08612  -0.40992  56.18275
     204 2002 12 21  0 12 46 510  3.7200    163.58056   1398.88119   1041.11058    -12.95999     26.56629      2.56934    177.8    149.5      6.4     -6.5    527.7     78.2    160.1    160.1 160.11407 160.11407   0.00000   0.00000   0.00000   0.00000   3.08585  -0.40992  56.14619
     205 2002 12 21  0 12 50 229  3.7193    163.60955   1399.28555   1041.25834    -12.62006     26.49627      2.62114    177.8    149.5      6.4     -6.6    527.7     78.3    160.1    160.1 160.11407 160.11407   0.00000   0.00000   0.00000   0.00000   3.08558  -0.40992  56.15758
     206 2002 12 21  0 12 53 948  3.7187    163.63856   1399.69176   1041.40822    -12.54112     26.45819      2.67441    177.8    149.5      6.4     -6.7    527.7     78.4    160.1    160.1 160.11407 160.11407   0.00000   0.00000   0.00000   0.00000   3.08531  -0.40992  56.12141
     207 2002 12 21  0 12 57 666  3.7181    163.66758   1400.10012   1041.56019    -12.53884     26.45278      2.72919    177.8    149.5      6.4     -6.7    527.7     78.4    160.1    160.1 160.11407 160.11407   0.00000   0.00000   0.00000   0.00000   3.08504  -0.40992  56.13297
     208 2002 12 21  0 13  1 384  3.7175    163.69661   1400.51100   1041.71422    -12.51918     26.48078      2.78519    177.8    149.5      6.4     -6.8    527.6     78.5    160.1    160.1 160.11407 160.11407   0.00000   0.00000   0.00000   0.00000   3.08477  -0.40992  56.09666
     209 2002 12 21  0 13  5 100  3.7169    163.72565   1400.94653   1041.87155    -12.47877     26.54305      2.84245    177.8    149.5      6.4     -6.8    527.5     78.6    167.5    167.5 167.48210 167.48210   0.00000   0.00000   0.00000   0.00000   3.08450  -0.40992  56.10843
     210 2002 12 21  0 13  8 798  3.6979    163.75460   1401.38698   1042.03037    -12.41495     26.68161      2.89804    177.8    149.5      6.4     -6.8    527.3     78.8    167.5    167.5 167.48210 167.48210   0.00000   0.00000   0.00000   0.00000   3.08423  -0.40992  56.07267
     211 2002 12 21  0 13 12 496  3.6973    163.78354   1401.83304   1042.19146    -12.33014     27.19189      2.95719    177.8    149.5      6.4     -6.8    527.2     78.9    167.5    167.5 167.48210 167.48210   0.00000   0.00000   0.00000   0.00000   3.08396  -0.40992  56.08441
     212 2002 12 21  0 13 16 193  3.6970    163.81246   1402.28525   1042.35457    -12.24150     27.71103      3.01746    177.8    149.5      6.4     -6.8    527.0     79.0    167.5    167.5 167.48210 167.48210   0.00000   0.00000   0.00000   0.00000   3.08369  -0.40992  56.04929
     213 2002 12 21  0 13 19 889  3.6963    163.84133   1402.74371   1042.51952    -12.12508     28.23617      3.07860    177.8    149.5      6.4     -6.8    526.9     79.1    167.5    167.5 167.48210 167.48210   0.00000   0.00000   0.00000   0.00000   3.08342  -0.40992  56.06118
     214 2002 12 21  0 13 23 584  3.6956    163.87015   1403.20872   1042.68625    -11.97866     28.76490      3.14038    177.8    149.5      6.4     -6.8    526.7     79.2    167.5    167.5 167.48210 167.48210   0.00000   0.00000   0.00000   0.00000   3.08315  -0.40992  56.02608
     215 2002 12 21  0 13 27 279  3.6950    163.89893   1403.68056   1042.85463    -11.87029     29.29483      3.20289    177.8    149.5      6.4     -6.8    526.6     79.4    167.5    167.5 167.48210 167.48210   0.00000   0.00000   0.00000   0.00000   3.08289  -0.40992  56.03808
     216 2002 12 21  0 13 30 974  3.6944    163.92768   1404.15944   1043.02459    -11.80297     29.82361      3.26599    177.8    149.5      6.4     -6.8    526.5     79.5    167.5    167.5 167.48210 167.48210   0.00000   0.00000   0.00000   0.00000   3.08262  -0.40992  56.00302
     217 2002 12 21  0 13 34 668  3.6938    163.95642   1404.64552   1043.19598    -11.71059     30.34910      3.32954    177.8    149.5      6.5     -6.8    526.3     79.6    167.5    167.5 167.48210 167.48210   0.00000   0.00000   0.00000   0.00000   3.08235  -0.40992  56.01516
     218 2002 12 21  0 13 38 361  3.6932    163.98513   1405.13890   1043.36871    -11.59403     30.86924      3.39350    177.8    149.5      6.5     -6.8    526.2     79.7    167.5    167.5 167.48210 167.48210   0.00000   0.00000   0.00000   0.00000   3.08208  -0.40992  55.98039
     219 2002 12 21  0 13 42  54  3.6927    164.01380   1405.63958   1043.54263    -11.45460     31.38216      3.45778    177.8    149.5      6.5     -6.8    526.0     79.9    167.5    167.5 167.48210 167.48210   0.00000   0.00000   0.00000   0.00000   3.08181  -0.40992  55.99265
     220 2002 12 21  0 13 45 746  3.6921    164.04244   1406.14750   1043.71763    -11.31846     31.88621      3.52227    177.8    149.5      6.5     -6.8    525.9     80.0    167.5    167.5 167.48210 167.48210   0.00000   0.00000   0.00000   0.00000   3.08154  -0.40992  55.95788
     221 2002 12 21  0 13 49 437  3.6916    164.06939   1406.66237   1043.89356    -11.16763     32.38003      3.58699    177.8    149.5      6.5     -6.8    525.7     80.1    167.5    167.5 167.48210 167.48210   0.00000   0.00000   0.00000   0.00000   3.08127  -0.40992  55.97030
     222 2002 12 21  0 13 53 128  3.6911    164.09599   1407.18417   1044.07031    -10.99422     32.86204      3.65175    177.8    149.5      6.5     -6.8    525.6     80.2    167.5    167.5 167.48210 167.48210   0.00000   0.00000   0.00000   0.00000   3.08101  -0.40992  55.93589
     223 2002 12 21  0 13 56 819  3.6906    164.12258   1407.71272   1044.24768    -10.79912     33.33110      3.71656    177.8    149.5      6.5     -6.8    525.4     80.3    167.5    167.5 167.48210 167.48210   0.00000   0.00000   0.00000   0.00000   3.08074  -0.40992  55.94850
     224 2002 12 21  0 14  0 509  3.6901    164.14917   1408.24772   1044.42558    -10.58332     33.78619      3.78126    177.8    149.5      6.5     -6.8    525.3     80.4    167.5    167.5 167.48210 167.48210   0.00000   0.00000   0.00000   0.00000   3.08047  -0.40992  55.91407
     225 2002 12 21  0 14  4 199  3.6896    164.17573   1408.78904   1044.60391    -10.34827     34.22640      3.84585    177.8    149.5      6.5     -6.8    525.3     80.5    170.9    170.9 170.94830 170.94830   0.00000   0.00000   0.00000   0.00000   3.08020  -0.40992  55.92694
     226 2002 12 21  0 14  7 887  3.6881    164.20227   1409.33580   1044.78241    -10.09574     34.65057      3.91005    177.8    149.5      6.5     -6.8    525.3     80.5    170.9    170.9 170.94830 170.94830   0.00000   0.00000   0.00000   0.00000   3.07993  -0.40992  55.89287
     227 2002 12 21  0 14 11 574  3.6876    164.22882   1409.88784   1044.96097     -9.82662     35.05859      3.97409    177.8    149.5      6.5     -6.9    525.3     80.6    170.9    170.9 170.94830 170.94830   0.00000   0.00000   0.00000   0.00000   3.07966  -0.40992  55.90589
     228 2002 12 21  0 14 15 262  3.6872    164.25537   1410.44472   1045.13945     -9.55957     35.45015      4.03785    177.8    149.5      6.5     -6.9    525.2     80.6    170.9    170.9 170.94830 170.94830   0.00000   0.00000   0.00000   0.00000   3.07940  -0.40992  55.87179
     229 2002 12 21  0 14 18 948  3.6867    164.28192   1411.00597   1045.31766     -9.27809     35.82504      4.10120    177.8    149.5      6.5     -6.9    525.2     80.6    170.9    170.9 170.94830 170.94830   0.00000   0.00000   0.00000   0.00000   3.07913  -0.40992  55.88499
     230 2002 12 21  0 14 22 634  3.6862    164.30845   1411.57106   1045.49548     -8.98280     36.18322      4.16411    177.8    149.5      6.4     -6.9    525.2     80.7    170.9    170.9 170.94830 170.94830   0.00000   0.00000   0.00000   0.00000   3.07886  -0.40992  55.85137
     231 2002 12 21  0 14 26 320  3.6857    164.33496   1412.13944   1045.67273     -8.67524     36.52475      4.22647    177.8    149.5      6.4     -6.9    525.2     80.7    170.9    170.9 170.94830 170.94830   0.00000   0.00000   0.00000   0.00000   3.07859  -0.40992  55.86478
     232 2002 12 21  0 14 30   5  3.6853    164.36145   1412.71054   1045.84929     -8.35703     37.24383      4.28831    177.8    149.5      6.4     -6.9    525.2     80.8    170.9    170.9 170.94830 170.94830   0.00000   0.00000   0.00000   0.00000   3.07832  -0.40992  55.83108
     233 2002 12 21  0 14 33 690  3.6848    164.38793   1413.28378   1046.02498     -8.02979     38.02378      4.34953    177.8    149.5      6.4     -7.0    525.2     80.8    170.9    170.9 170.94830 170.94830   0.00000   0.00000   0.00000   0.00000   3.07806  -0.40992  55.84462
     234 2002 12 21  0 14 37 375  3.6843    164.41441   1413.85855   1046.19969     -7.69524     38.81661      4.41005    177.8    149.5      6.4     -7.0    525.1     80.8    170.9    170.9 170.94830 170.94830   0.00000   0.00000   0.00000   0.00000   3.07779  -0.40992  55.81134
     235 2002 12 21  0 14 41  58  3.6838    164.44089   1414.43423   1046.37326     -7.35515     39.62034      4.46992    177.8    149.5      6.4     -7.0    525.1     80.9    170.9    170.9 170.94830 170.94830   0.00000   0.00000   0.00000   0.00000   3.07752  -0.40992  55.82507
     236 2002 12 21  0 14 44 742  3.6833    164.46734   1415.01020   1046.54559     -7.22567     40.43274      4.52903    177.8    149.5      6.4     -7.0    525.1     80.9    170.9    170.9 170.94830 170.94830   0.00000   0.00000   0.00000   0.00000   3.07725  -0.40992  55.79171
     237 2002 12 21  0 14 48 425  3.6829    164.49378   1415.58582   1046.71653     -7.20945     41.25176      4.58720    177.8    149.5      6.3     -7.0    525.1     80.9    170.9    170.9 170.94830 170.94830   0.00000   0.00000   0.00000   0.00000   3.07698  -0.40992  55.80557
     238 2002 12 21  0 14 52 107  3.6824    164.52022   1416.16047   1046.88599     -7.19003     42.07544      4.64458    177.8    149.5      6.3     -7.1    525.1     81.0    170.9    170.9 170.94830 170.94830   0.00000   0.00000   0.00000   0.00000   3.07672  -0.40992  55.77261
     239 2002 12 21  0 14 55 789  3.6819    164.54666   1416.73351   1047.05384     -7.17037     42.90187      4.70099    177.8    149.5      6.3     -7.1    525.1     81.0    170.9    170.9 170.94830 170.94830   0.00000   0.00000   0.00000   0.00000   3.07645  -0.40992  55.78665
     240 2002 12 21  0 14 59 470  3.6814    164.57312   1417.30432   1047.22000     -7.16139     43.72966      4.75643    177.8    149.5      6.3     -7.1    525.0     81.1    170.9    170.9 170.94830 170.94830   0.00000   0.00000   0.00000   0.00000   3.07618  -0.40992  55.75361
     241 2002 12 21  0 15  0   0  0.5292    164.58448   1417.60232   1047.22205     -5.86884     43.44808      4.27991    177.8    149.5      6.3     -7.1    525.0     81.1    170.9    170.9 170.94830 170.94830   0.00000   0.00000   0.00000   0.00000   3.07614  -0.40992  55.75648
