GITM2 log file
## Inputs from UAM.in
# Resart= F
# Eddy coef:    50.000 Eddy P0:     0.010 Eddy P1:     0.005
# Statistical Models Only:  F Apex:  F
# EUV Data:  F
# E-Field Model: hepmay Auroral Model: FRE
# AMIE: none           
none                                                                                                                                                                                                                                                                                                                                                                                                                                                                                                                                                                                                                    
# Solar Heating:  T Joule Heating:  T
# NO Cooling:  T O Cooling:  T
# Conduction:  T Turbulent Conduction:  T
# Pressure Grad:  T Ion Drag:  T Neutral Drag:  T
# Viscosity:  T Coriolis:  T Gravity:  T
# Ion Chemistry:  T Ion Advection:  T Neutral Chemistry:  T
 
#START
   iStep yyyy mm dd hh mm ss  ms      dt min(T) max(T) mean(T) min(VV) max(VV) mean(VV) F107 F107A By Bz Vx HP HPn HPs HPn_diff HPs_diff HPn_w HPs_w HPn_m HPs_m SubsolarLon SubsolarLat SubsolarVTEC
       2 2002 12 21  0  0  4 105  4.1058    157.74815   1316.94399   1012.00744     -3.86975      4.80289      0.02833    177.9    149.5      6.1     -6.0    531.2     71.9     95.5     95.5  95.48751  95.48751   0.00000   0.00000   0.00000   0.00000   3.14129  -0.40992  58.10300
       3 2002 12 21  0  0  8 203  4.0977    157.86951   1316.73590   1012.12672     -5.52743      3.91095     -0.31462    177.9    149.5      6.2     -6.0    531.0     72.0     95.5     95.5  95.48751  95.48751   0.00000   0.00000   0.00000   0.00000   3.14100  -0.40992  58.06740
       4 2002 12 21  0  0 12 301  4.0979    157.90255   1316.53884   1012.25819     -6.40137      3.49807     -0.57158    177.9    149.5      6.2     -6.0    530.7     72.0     95.5     95.5  95.48751  95.48751   0.00000   0.00000   0.00000   0.00000   3.14070  -0.40992  58.05555
       5 2002 12 21  0  0 16 399  4.0986    157.87966   1316.34641   1012.39615     -6.90365      3.31536     -0.79022    177.9    149.5      6.3     -6.0    530.5     72.1     95.5     95.5  95.48751  95.48751   0.00000   0.00000   0.00000   0.00000   3.14040  -0.40992  58.06607
       6 2002 12 21  0  0 20 497  4.0972    157.86367   1316.16305   1012.53880     -7.25397      3.21954     -0.98942    177.9    149.5      6.3     -6.0    530.2     72.1     95.5     95.5  95.48751  95.48751   0.00000   0.00000   0.00000   0.00000   3.14010  -0.40992  58.03250
       7 2002 12 21  0  0 24 590  4.0938    157.86617   1315.99286   1012.68470     -7.54145      3.12160     -1.17818    177.9    149.5      6.3     -6.0    529.9     72.2     95.5     95.5  95.48751  95.48751   0.00000   0.00000   0.00000   0.00000   3.13980  -0.40992  58.02778
       8 2002 12 21  0  0 28 675  4.0848    157.88477   1315.83933   1012.83295     -7.79943      3.01025     -1.36159    177.9    149.5      6.4     -6.0    529.7     72.2     95.5     95.5  95.48751  95.48751   0.00000   0.00000   0.00000   0.00000   3.13951  -0.40992  57.98297
       9 2002 12 21  0  0 32 754  4.0792    157.89700   1315.70414   1012.98284     -8.04573      2.90597     -1.53892    177.9    149.5      6.4     -6.0    529.4     72.3     95.5     95.5  95.48751  95.48751   0.00000   0.00000   0.00000   0.00000   3.13921  -0.40992  57.96859
      10 2002 12 21  0  0 36 830  4.0760    157.89983   1315.58363   1013.13410     -8.28363      2.79958     -1.71228    177.9    149.5      6.4     -6.0    529.1     72.3     95.5     95.5  95.48751  95.48751   0.00000   0.00000   0.00000   0.00000   3.13891  -0.40992  57.91233
      11 2002 12 21  0  0 40 903  4.0724    157.90088   1315.47678   1013.28609     -8.57594      2.68517     -1.88173    177.9    149.5      6.5     -6.0    528.9     72.3     95.5     95.5  95.48751  95.48751   0.00000   0.00000   0.00000   0.00000   3.13862  -0.40992  57.89359
      12 2002 12 21  0  0 44 974  4.0710    157.90680   1315.38205   1013.43870     -9.01180      2.56687     -2.04678    177.9    149.5      6.5     -6.0    528.6     72.4     95.5     95.5  95.48751  95.48751   0.00000   0.00000   0.00000   0.00000   3.13832  -0.40992  57.83400
      13 2002 12 21  0  0 49  46  4.0717    157.91611   1315.29814   1013.59149     -9.43225      2.44365     -2.20956    177.9    149.5      6.5     -6.0    528.4     72.4     95.5     95.5  95.48751  95.48751   0.00000   0.00000   0.00000   0.00000   3.13803  -0.40992  57.81390
      14 2002 12 21  0  0 53 119  4.0731    157.92547   1315.22378   1013.74437     -9.83538      2.31437     -2.36991    177.9    149.5      6.6     -6.0    528.1     72.5     95.5     95.5  95.48751  95.48751   0.00000   0.00000   0.00000   0.00000   3.13773  -0.40992  57.74784
      15 2002 12 21  0  0 57 194  4.0757    157.93454   1315.15776   1013.89698    -10.32108      2.47248     -2.52782    177.9    149.5      6.6     -6.0    527.8     72.5     95.5     95.5  95.48751  95.48751   0.00000   0.00000   0.00000   0.00000   3.13743  -0.40992  57.72759
      16 2002 12 21  0  1  1 273  4.0791    157.94294   1315.17081   1014.04929    -11.05683      2.60619     -2.68345    177.9    149.5      6.6     -6.0    527.7     72.6     95.5     95.5  95.48751  95.48751   0.00000   0.00000   0.00000   0.00000   3.13714  -0.40992  57.66205
      17 2002 12 21  0  1  5 357  4.0833    157.94869   1315.67657   1014.20094    -11.94551      2.86195     -2.83657    177.9    149.5      6.6     -6.0    527.8     72.5     95.5     95.5  95.51181  95.51181   0.00000   0.00000   0.00000   0.00000   3.13684  -0.40992  57.64241
      18 2002 12 21  0  1  9 445  4.0882    157.95296   1316.16684   1014.35197    -12.80113      2.99244     -2.98728    177.9    149.5      6.6     -6.0    528.0     72.5     95.5     95.5  95.51181  95.51181   0.00000   0.00000   0.00000   0.00000   3.13654  -0.40992  57.57178
      19 2002 12 21  0  1 13 534  4.0894    157.95732   1316.64219   1014.50192    -13.68738      3.32368     -3.13570    177.9    149.5      6.6     -6.0    528.1     72.4     95.5     95.5  95.51181  95.51181   0.00000   0.00000   0.00000   0.00000   3.13625  -0.40992  57.55286
      20 2002 12 21  0  1 17 624  4.0895    157.96154   1317.10358   1014.65078    -14.48496      3.70304     -3.28129    177.9    149.5      6.6     -6.1    528.2     72.4     95.5     95.5  95.51181  95.51181   0.00000   0.00000   0.00000   0.00000   3.13595  -0.40992  57.48697
      21 2002 12 21  0  1 21 713  4.0896    157.96457   1317.55199   1014.79829    -15.46251      4.09967     -3.42373    177.9    149.5      6.6     -6.1    528.3     72.3     95.5     95.5  95.51181  95.51181   0.00000   0.00000   0.00000   0.00000   3.13565  -0.40992  57.46906
      22 2002 12 21  0  1 25 803  4.0895    157.96617   1317.98827   1014.94447    -16.03042      4.36793     -3.56283    177.9    149.5      6.5     -6.1    528.5     72.3     95.5     95.5  95.51181  95.51181   0.00000   0.00000   0.00000   0.00000   3.13535  -0.40992  57.39822
      23 2002 12 21  0  1 29 892  4.0893    157.96658   1318.41319   1015.08909    -17.18828      4.85475     -3.69832    177.9    149.5      6.5     -6.1    528.6     72.2     95.5     95.5  95.51181  95.51181   0.00000   0.00000   0.00000   0.00000   3.13506  -0.40992  57.38088
      24 2002 12 21  0  1 33 981  4.0890    157.96589   1318.82742   1015.23219    -17.55039      5.09853     -3.83003    177.9    149.5      6.5     -6.1    528.7     72.2     95.5     95.5  95.51181  95.51181   0.00000   0.00000   0.00000   0.00000   3.13476  -0.40992  57.31620
      25 2002 12 21  0  1 38  70  4.0886    157.96418   1319.23162   1015.37353    -18.86912      5.41191     -3.95782    177.9    149.5      6.5     -6.1    528.8     72.2     95.5     95.5  95.51181  95.51181   0.00000   0.00000   0.00000   0.00000   3.13446  -0.40992  57.30016
      26 2002 12 21  0  1 42 158  4.0882    157.96130   1319.62636   1015.51318    -19.56538      5.81060     -4.08156    177.9    149.5      6.5     -6.1    529.0     72.1     95.5     95.5  95.51181  95.51181   0.00000   0.00000   0.00000   0.00000   3.13416  -0.40992  57.22933
      27 2002 12 21  0  1 46 246  4.0878    157.95716   1320.01212   1015.65093    -20.43757      5.89720     -4.20076    177.9    149.5      6.5     -6.1    529.1     72.1     95.5     95.5  95.51181  95.51181   0.00000   0.00000   0.00000   0.00000   3.13387  -0.40992  57.21388
      28 2002 12 21  0  1 50 333  4.0876    157.95199   1320.38929   1015.78685    -21.68418      6.39880     -4.31494    177.9    149.5      6.5     -6.1    529.2     72.0     95.5     95.5  95.51181  95.51181   0.00000   0.00000   0.00000   0.00000   3.13357  -0.40992  57.15009
      29 2002 12 21  0  1 54 421  4.0875    157.94610   1320.75831   1015.92077    -21.92522      6.68379     -4.42358    177.9    149.5      6.5     -6.1    529.3     72.0     95.5     95.5  95.51181  95.51181   0.00000   0.00000   0.00000   0.00000   3.13327  -0.40992  57.13589
      30 2002 12 21  0  1 58 509  4.0875    157.93937   1321.11961   1016.05275    -23.30443      6.87687     -4.52667    177.9    149.5      6.4     -6.1    529.5     71.9     95.5     95.5  95.51181  95.51181   0.00000   0.00000   0.00000   0.00000   3.13297  -0.40992  57.06609
      31 2002 12 21  0  2  2 596  4.0877    157.93185   1321.47352   1016.18261    -24.38664      7.36034     -4.62397    177.9    149.5      6.4     -6.1    529.5     72.0     95.5     95.5  95.51181  95.51181   0.00000   0.00000   0.00000   0.00000   3.13268  -0.40992  57.05249
      32 2002 12 21  0  2  6 684  4.0879    157.92370   1321.82015   1016.31040    -24.33932      7.54887     -4.71522    177.9    149.5      6.4     -6.2    529.5     72.1     95.5     95.5  95.53613  95.53613   0.00000   0.00000   0.00000   0.00000   3.13238  -0.40992  56.98908
      33 2002 12 21  0  2 10 772  4.0881    157.91580   1322.15985   1016.43596    -26.10584      7.79485     -4.80001    177.9    149.5      6.4     -6.2    529.6     72.2     95.5     95.5  95.53613  95.53613   0.00000   0.00000   0.00000   0.00000   3.13208  -0.40992  56.97682
      34 2002 12 21  0  2 14 860  4.0883    157.90694   1322.49279   1016.55940    -27.17052      8.27316     -4.87827    177.9    149.5      6.4     -6.2    529.6     72.3     95.5     95.5  95.53613  95.53613   0.00000   0.00000   0.00000   0.00000   3.13179  -0.40992  56.90769
      35 2002 12 21  0  2 18 949  4.0884    157.89495   1322.81913   1016.68057    -27.09887      8.45073     -4.94973    177.9    149.5      6.4     -6.2    529.6     72.4     95.5     95.5  95.53613  95.53613   0.00000   0.00000   0.00000   0.00000   3.13149  -0.40992  56.89575
      36 2002 12 21  0  2 23  37  4.0885    157.88435   1323.13901   1016.79958    -28.72715      8.63824     -5.01453    177.9    149.5      6.4     -6.2    529.7     72.5     95.5     95.5  95.53613  95.53613   0.00000   0.00000   0.00000   0.00000   3.13119  -0.40992  56.83296
      37 2002 12 21  0  2 27 126  4.0886    157.87503   1323.45252   1016.91629    -29.98620      9.15930     -5.07258    177.9    149.5      6.3     -6.2    529.7     72.7     95.5     95.5  95.53613  95.53613   0.00000   0.00000   0.00000   0.00000   3.13089  -0.40992  56.82203
      38 2002 12 21  0  2 31 215  4.0886    157.86698   1323.75974   1017.03085    -29.98439      9.35570     -5.12387    177.9    149.5      6.3     -6.2    529.7     72.8     95.5     95.5  95.53613  95.53613   0.00000   0.00000   0.00000   0.00000   3.13060  -0.40992  56.75346
      39 2002 12 21  0  2 35 303  4.0887    157.86032   1324.06072   1017.14311    -30.90149      9.43421     -5.16839    177.9    149.5      6.3     -6.3    529.8     72.9     95.5     95.5  95.53613  95.53613   0.00000   0.00000   0.00000   0.00000   3.13030  -0.40992  56.74303
      40 2002 12 21  0  2 39 392  4.0888    157.85523   1324.35548   1017.25325    -32.50742     10.00642     -5.20628    177.9    149.5      6.3     -6.3    529.8     73.0     95.5     95.5  95.53613  95.53613   0.00000   0.00000   0.00000   0.00000   3.13000  -0.40992  56.68094
      41 2002 12 21  0  2 43 481  4.0888    157.85183   1324.64404   1017.36115    -32.94195     10.27694     -5.23752    177.9    149.5      6.3     -6.3    529.8     73.1     95.5     95.5  95.53613  95.53613   0.00000   0.00000   0.00000   0.00000   3.12970  -0.40992  56.67159
      42 2002 12 21  0  2 47 570  4.0889    157.84830   1324.92641   1017.46698    -32.95038     10.17416     -5.26198    177.9    149.5      6.3     -6.3    529.9     73.2     95.5     95.5  95.53613  95.53613   0.00000   0.00000   0.00000   0.00000   3.12941  -0.40992  56.60348
      43 2002 12 21  0  2 51 659  4.0889    157.84274   1325.20256   1017.57065    -34.96831     10.82486     -5.27963    177.9    149.5      6.3     -6.3    529.9     73.3     95.5     95.5  95.53613  95.53613   0.00000   0.00000   0.00000   0.00000   3.12911  -0.40992  56.59458
      44 2002 12 21  0  2 55 748  4.0890    157.83782   1325.47248   1017.67234    -36.01109     11.22082     -5.29026    177.9    149.5      6.2     -6.3    529.9     73.5     95.5     95.5  95.53613  95.53613   0.00000   0.00000   0.00000   0.00000   3.12881  -0.40992  56.53340
      45 2002 12 21  0  2 59 837  4.0890    157.83354   1325.73616   1017.77201    -35.59105     11.91340     -5.29338    177.9    149.5      6.2     -6.4    530.0     73.6     95.5     95.5  95.53613  95.53613   0.00000   0.00000   0.00000   0.00000   3.12851  -0.40992  56.52554
      46 2002 12 21  0  3  3 926  4.0891    157.82987   1325.99357   1017.86985    -36.76917     12.99052     -5.28851    177.9    149.5      6.2     -6.3    530.0     73.8     95.5     95.5  95.53613  95.53613   0.00000   0.00000   0.00000   0.00000   3.12822  -0.40992  56.45816
      47 2002 12 21  0  3  8  15  4.0892    157.82677   1326.24451   1017.96575    -38.42795     13.87089     -5.27507    177.9    149.5      6.3     -6.3    530.1     74.0     95.6     95.6  95.56045  95.56045   0.00000   0.00000   0.00000   0.00000   3.12792  -0.40992  56.45053
      48 2002 12 21  0  3 12 104  4.0892    157.82421   1326.48917   1018.05999    -38.83088     15.19843     -5.25218    177.9    149.5      6.3     -6.3    530.2     74.2     95.6     95.6  95.56045  95.56045   0.00000   0.00000   0.00000   0.00000   3.12762  -0.40992  56.39014
      49 2002 12 21  0  3 16 193  4.0893    157.82229   1326.72757   1018.15255    -37.97486     16.27227     -5.21885    177.9    149.5      6.3     -6.3    530.3     74.4     95.6     95.6  95.56045  95.56045   0.00000   0.00000   0.00000   0.00000   3.12733  -0.40992  56.38375
      50 2002 12 21  0  3 20 283  4.0894    157.82125   1326.95976   1018.24368    -40.08011     17.06573     -5.17395    177.9    149.5      6.3     -6.3    530.4     74.6     95.6     95.6  95.56045  95.56045   0.00000   0.00000   0.00000   0.00000   3.12703  -0.40992  56.31723
      51 2002 12 21  0  3 24 372  4.0894    157.82063   1327.18584   1018.33341    -41.32735     18.57850     -5.11635    177.9    149.5      6.3     -6.2    530.5     74.9     95.6     95.6  95.56045  95.56045   0.00000   0.00000   0.00000   0.00000   3.12673  -0.40992  56.31106
      52 2002 12 21  0  3 28 462  4.0894    157.82013   1327.40593   1018.42200    -41.15339     19.83463     -5.04469    177.9    149.5      6.3     -6.2    530.6     75.1     95.6     95.6  95.56045  95.56045   0.00000   0.00000   0.00000   0.00000   3.12643  -0.40992  56.25125
      53 2002 12 21  0  3 32 551  4.0894    157.81926   1327.62022   1018.50952    -40.83516     20.66707     -4.95768    177.9    149.5      6.3     -6.2    530.7     75.3     95.6     95.6  95.56045  95.56045   0.00000   0.00000   0.00000   0.00000   3.12614  -0.40992  56.24583
      54 2002 12 21  0  3 36 641  4.0894    157.81926   1327.82897   1018.59626    -42.58904     21.78058     -4.85416    177.9    149.5      6.3     -6.2    530.8     75.5     95.6     95.6  95.56045  95.56045   0.00000   0.00000   0.00000   0.00000   3.12584  -0.40992  56.18047
      55 2002 12 21  0  3 40 730  4.0894    157.82054   1328.03250   1018.68228    -43.36975     23.48024     -4.73310    177.9    149.5      6.3     -6.1    530.9     75.7     95.6     95.6  95.56045  95.56045   0.00000   0.00000   0.00000   0.00000   3.12554  -0.40992  56.17535
      56 2002 12 21  0  3 44 819  4.0894    157.82183   1328.23119   1018.76792    -42.66348     24.54767     -4.59356    177.9    149.5      6.3     -6.1    531.0     75.9     95.6     95.6  95.56045  95.56045   0.00000   0.00000   0.00000   0.00000   3.12524  -0.40992  56.11574
      57 2002 12 21  0  3 48 909  4.0893    157.82263   1328.42553   1018.85326    -42.84704     25.15355     -4.43482    177.9    149.5      6.4     -6.1    531.1     76.2     95.6     95.6  95.56045  95.56045   0.00000   0.00000   0.00000   0.00000   3.12495  -0.40992  56.11134
      58 2002 12 21  0  3 52 998  4.0893    157.82360   1328.61609   1018.93863    -44.13721     26.70351     -4.25646    177.9    149.5      6.4     -6.1    531.2     76.4     95.6     95.6  95.56045  95.56045   0.00000   0.00000   0.00000   0.00000   3.12465  -0.40992  56.04621
      59 2002 12 21  0  3 57  87  4.0892    157.82496   1328.80350   1019.02414    -44.46202     28.37350     -4.05835    177.9    149.5      6.4     -6.1    531.3     76.6     95.6     95.6  95.56045  95.56045   0.00000   0.00000   0.00000   0.00000   3.12435  -0.40992  56.04200
      60 2002 12 21  0  4  1 176  4.0891    157.82657   1328.98839   1019.11012    -43.24209     29.40340     -3.84069    177.9    149.5      6.4     -6.0    531.4     76.7     95.6     95.6  95.56045  95.56045   0.00000   0.00000   0.00000   0.00000   3.12405  -0.40992  55.98343
      61 2002 12 21  0  4  5 265  4.0890    157.82816   1329.17119   1019.19660    -43.99571     29.90330     -3.60393    177.9    149.5      6.3     -6.1    531.6     76.8    170.6    170.6 170.63387 170.63387   0.00000   0.00000   0.00000   0.00000   3.12376  -0.40992  55.98003
      62 2002 12 21  0  4  9 354  4.0889    157.82954   1329.35312   1019.28403    -44.80331     31.60789     -3.34884    177.9    149.5      6.3     -6.1    531.7     76.8    170.6    170.6 170.63387 170.63387   0.00000   0.00000   0.00000   0.00000   3.12346  -0.40992  55.91701
      63 2002 12 21  0  4 13 443  4.0887    157.83073   1329.53511   1019.37248    -44.53232     33.33534     -3.07653    177.9    149.5      6.2     -6.1    531.9     76.9    170.6    170.6 170.63387 170.63387   0.00000   0.00000   0.00000   0.00000   3.12316  -0.40992  55.91410
      64 2002 12 21  0  4 17 532  4.0886    157.83180   1329.71813   1019.46228    -43.09986     34.48713     -2.78842    177.9    149.5      6.1     -6.2    532.1     76.9    170.6    170.6 170.63387 170.63387   0.00000   0.00000   0.00000   0.00000   3.12286  -0.40992  55.85133
      65 2002 12 21  0  4 21 620  4.0884    157.83276   1329.90309   1019.55347    -44.23630     34.87822     -2.48606    177.9    149.5      6.1     -6.2    532.2     76.9    170.6    170.6 170.63387 170.63387   0.00000   0.00000   0.00000   0.00000   3.12257  -0.40992  55.84902
      66 2002 12 21  0  4 25 708  4.0882    157.83352   1330.09094   1019.64637    -44.54043     36.11671     -2.17116    177.9    149.5      6.0     -6.2    532.4     77.0    170.6    170.6 170.63387 170.63387   0.00000   0.00000   0.00000   0.00000   3.12227  -0.40992  55.78616
      67 2002 12 21  0  4 29 796  4.0880    157.83400   1330.28248   1019.74100    -43.60728     38.17975     -1.84563    177.9    149.5      6.0     -6.2    532.5     77.0    170.6    170.6 170.63387 170.63387   0.00000   0.00000   0.00000   0.00000   3.12197  -0.40992  55.78452
      68 2002 12 21  0  4 33 884  4.0878    157.83419   1330.47846   1019.83764    -42.94623     39.49575     -1.51150    177.9    149.5      5.9     -6.3    532.7     77.1    170.6    170.6 170.63387 170.63387   0.00000   0.00000   0.00000   0.00000   3.12168  -0.40992  55.72360
      69 2002 12 21  0  4 37 972  4.0876    157.83409   1330.67940   1019.93628    -43.57730     39.89353     -1.17077    177.9    149.5      5.8     -6.3    532.8     77.1    170.6    170.6 170.63387 170.63387   0.00000   0.00000   0.00000   0.00000   3.12138  -0.40992  55.72164
      70 2002 12 21  0  4 42  59  4.0874    157.83367   1330.88571   1020.03715    -43.36548     40.73701     -0.82540    177.9    149.5      5.8     -6.3    533.0     77.1    170.6    170.6 170.63387 170.63387   0.00000   0.00000   0.00000   0.00000   3.12108  -0.40992  55.66473
      71 2002 12 21  0  4 46 146  4.0871    157.83290   1331.09756   1020.14023    -41.88704     42.77971     -0.47727    177.9    149.5      5.7     -6.3    533.2     77.2    170.6    170.6 170.63387 170.63387   0.00000   0.00000   0.00000   0.00000   3.12078  -0.40992  55.66402
      72 2002 12 21  0  4 50 233  4.0869    157.83181   1331.31486   1020.24571    -42.07250     44.21191     -0.12820    177.9    149.5      5.7     -6.4    533.3     77.2    170.6    170.6 170.63387 170.63387   0.00000   0.00000   0.00000   0.00000   3.12049  -0.40992  55.59752
      73 2002 12 21  0  4 54 320  4.0866    157.83042   1331.53716   1020.35356    -42.17587     44.82033      0.22020    177.9    149.5      5.6     -6.4    533.5     77.2    170.6    170.6 170.63387 170.63387   0.00000   0.00000   0.00000   0.00000   3.12019  -0.40992  55.59630
      74 2002 12 21  0  4 58 406  4.0864    157.82871   1331.76376   1020.46395    -41.56258     45.81591      0.56650    177.9    149.5      5.5     -6.4    533.6     77.3    170.6    170.6 170.63387 170.63387   0.00000   0.00000   0.00000   0.00000   3.11989  -0.40992  55.53987
      75 2002 12 21  0  5  0   0  1.5936    157.83224   1331.81169   1020.50436    -41.86576     46.56252      0.53385    177.9    149.5      5.5     -6.4    533.7     77.3    170.6    170.6 170.63387 170.63387   0.00000   0.00000   0.00000   0.00000   3.11978  -0.40992  55.54104
