GITM2 log file
## Inputs from UAM.in
# Resart= F
# Eddy coef:    50.000 Eddy P0:     0.010 Eddy P1:     0.005
# Statistical Models Only:  F Apex:  F
# EUV Data:  TFile: 
UA/DataIn/FISM/fismflux_daily_2002.dat                                                                                                                                                                                                                                                                                                                                                                                                                                                                                                                                                                                  
# E-Field Model: weimer05 Auroral Model: FTA
# AMIE: none           
none                                                                                                                                                                                                                                                                                                                                                                                                                                                                                                                                                                                                                    
# Solar Heating:  T Joule Heating:  T
# NO Cooling:  T O Cooling:  T
# Conduction:  T Turbulent Conduction:  T
# Pressure Grad:  T Ion Drag:  T Neutral Drag:  T
# Viscosity:  T Coriolis:  T Gravity:  T
# Ion Chemistry:  T Ion Advection:  T Neutral Chemistry:  T
 
#START
   iStep yyyy mm dd hh mm ss  ms      dt min(T) max(T) mean(T) min(VV) max(VV) mean(VV) F107 F107A By Bz Vx HP HPn HPs HPn_diff HPs_diff HPn_w HPs_w HPn_m HPs_m SubsolarLon SubsolarLat SubsolarVTEC
       2 2002 12 21  0  0  4 105  4.1058    157.74815   1316.94289   1012.01852     -3.86973      4.80289      0.02868    177.9    149.5      6.1     -6.0    531.2     71.9    146.3    146.3 146.25404 146.25404   0.00000   0.00000   0.00000   0.00000   3.14129  -0.40992  58.07354
       3 2002 12 21  0  0  8  39  3.9333    157.86685   1316.75126   1012.14763     -5.47890      3.73507     -0.31689    177.9    149.5      6.2     -6.0    531.0     72.0    146.3    146.3 146.25404 146.25404   0.00000   0.00000   0.00000   0.00000   3.14101  -0.40992  57.96171
       4 2002 12 21  0  0 11 927  3.8882    157.90250   1316.56583   1012.28863     -6.33135      3.28832     -0.56606    177.9    149.5      6.2     -6.0    530.7     72.0    146.3    146.3 146.25404 146.25404   0.00000   0.00000   0.00000   0.00000   3.14073  -0.40992  57.89588
       5 2002 12 21  0  0 15 899  3.9717    157.88239   1316.37281   1012.44050     -6.83937      3.18237     -0.77112    177.9    149.5      6.2     -6.0    530.5     72.0    146.3    146.3 146.25404 146.25404   0.00000   0.00000   0.00000   0.00000   3.14044  -0.40992  57.85516
       6 2002 12 21  0  0 19 881  3.9828    157.86617   1316.19139   1012.59805     -7.18284      3.10228     -0.96215    177.9    149.5      6.3     -6.0    530.2     72.1    146.3    146.3 146.25404 146.25404   0.00000   0.00000   0.00000   0.00000   3.14015  -0.40992  57.80197
       7 2002 12 21  0  0 23 873  3.9918    157.86472   1316.02152   1012.76020     -7.46045      3.02127     -1.14253    177.9    149.5      6.3     -6.0    530.0     72.1    146.3    146.3 146.25404 146.25404   0.00000   0.00000   0.00000   0.00000   3.13986  -0.40992  57.76663
       8 2002 12 21  0  0 27 876  4.0023    157.88074   1315.86519   1012.92609     -7.70832      2.93575     -1.31743    177.9    149.5      6.4     -6.0    529.7     72.2    146.3    146.3 146.25404 146.25404   0.00000   0.00000   0.00000   0.00000   3.13957  -0.40992  57.71151
       9 2002 12 21  0  0 31 890  4.0142    157.89443   1315.72644   1013.09503     -7.94295      2.85088     -1.48699    177.9    149.5      6.4     -6.0    529.5     72.2    146.3    146.3 146.25404 146.25404   0.00000   0.00000   0.00000   0.00000   3.13927  -0.40992  57.67664
      10 2002 12 21  0  0 35 908  4.0186    157.89981   1315.60291   1013.26618     -8.16814      2.75664     -1.65288    177.9    149.5      6.4     -6.0    529.2     72.3    146.3    146.3 146.25404 146.25404   0.00000   0.00000   0.00000   0.00000   3.13898  -0.40992  57.61810
      11 2002 12 21  0  0 39 925  4.0162    157.90084   1315.49317   1013.43870     -8.38631      2.64667     -1.81550    177.9    149.5      6.5     -6.0    528.9     72.3    146.3    146.3 146.25404 146.25404   0.00000   0.00000   0.00000   0.00000   3.13869  -0.40992  57.58375
      12 2002 12 21  0  0 43 940  4.0153    157.90567   1315.39538   1013.61236     -8.59814      2.53213     -1.97311    177.9    149.5      6.5     -6.0    528.7     72.4    146.3    146.3 146.25404 146.25404   0.00000   0.00000   0.00000   0.00000   3.13840  -0.40992  57.52484
      13 2002 12 21  0  0 47 956  4.0158    157.91409   1315.30838   1013.78672     -8.80403      2.41241     -2.12774    177.9    149.5      6.5     -6.0    528.4     72.4    146.3    146.3 146.25404 146.25404   0.00000   0.00000   0.00000   0.00000   3.13811  -0.40992  57.49106
      14 2002 12 21  0  0 51 973  4.0168    157.92303   1315.23088   1013.96160     -9.40141      2.28637     -2.27976    177.9    149.5      6.6     -6.0    528.2     72.5    146.3    146.3 146.25404 146.25404   0.00000   0.00000   0.00000   0.00000   3.13781  -0.40992  57.43171
      15 2002 12 21  0  0 55 991  4.0183    157.93201   1315.16174   1014.13662    -10.09547      2.38497     -2.42895    177.9    149.5      6.6     -6.0    527.9     72.5    146.3    146.3 146.25404 146.25404   0.00000   0.00000   0.00000   0.00000   3.13752  -0.40992  57.39870
      16 2002 12 21  0  1  0  10  4.0195    157.94083   1315.38395   1014.31164    -10.69803      2.58151     -2.57563    177.9    149.5      6.6     -6.0    527.7     72.6    146.3    146.3 146.25404 146.25404   0.00000   0.00000   0.00000   0.00000   3.13723  -0.40992  57.34001
      17 2002 12 21  0  1  4  28  4.0173    157.94734   1315.91333   1014.48628    -11.70863      2.77718     -2.71961    177.9    149.5      6.6     -6.0    527.8     72.5    149.2    149.2 149.21835 149.21835   0.00000   0.00000   0.00000   0.00000   3.13694  -0.40992  57.30776
      18 2002 12 21  0  1  8  35  4.0072    157.95170   1316.42410   1014.66005    -12.36581      2.92841     -2.86118    177.9    149.5      6.6     -6.0    527.9     72.5    149.2    149.2 149.21835 149.21835   0.00000   0.00000   0.00000   0.00000   3.13664  -0.40992  57.24829
      19 2002 12 21  0  1 12  36  4.0014    157.95575   1316.91889   1014.83286    -13.41344      3.24903     -2.99935    177.9    149.5      6.6     -6.0    528.0     72.4    149.2    149.2 149.21835 149.21835   0.00000   0.00000   0.00000   0.00000   3.13635  -0.40992  57.21746
      20 2002 12 21  0  1 16  32  3.9957    157.95999   1317.39841   1015.00462    -13.93395      3.51901     -3.13425    177.9    149.5      6.6     -6.0    528.2     72.4    149.2    149.2 149.21835 149.21835   0.00000   0.00000   0.00000   0.00000   3.13606  -0.40992  57.15901
      21 2002 12 21  0  1 20  22  3.9900    157.96357   1317.86354   1015.17510    -15.08658      3.98669     -3.26564    177.9    149.5      6.6     -6.1    528.3     72.4    149.2    149.2 149.21835 149.21835   0.00000   0.00000   0.00000   0.00000   3.13577  -0.40992  57.12945
      22 2002 12 21  0  1 24   6  3.9836    157.96582   1318.31508   1015.34426    -15.60177      4.23249     -3.39343    177.9    149.5      6.6     -6.1    528.4     72.3    149.2    149.2 149.21835 149.21835   0.00000   0.00000   0.00000   0.00000   3.13548  -0.40992  57.06986
      23 2002 12 21  0  1 27 983  3.9776    157.96673   1318.75383   1015.51189    -16.63117      4.67124     -3.51729    177.9    149.5      6.5     -6.1    528.5     72.3    149.2    149.2 149.21835 149.21835   0.00000   0.00000   0.00000   0.00000   3.13519  -0.40992  57.04174
      24 2002 12 21  0  1 31 955  3.9721    157.96652   1319.18066   1015.67802    -17.38548      5.03921     -3.63707    177.9    149.5      6.5     -6.1    528.6     72.2    149.2    149.2 149.21835 149.21835   0.00000   0.00000   0.00000   0.00000   3.13491  -0.40992  56.98251
      25 2002 12 21  0  1 35 922  3.9670    157.96537   1319.60024   1015.84247    -18.01299      5.16193     -3.75267    177.9    149.5      6.5     -6.1    528.8     72.2    149.2    149.2 149.21835 149.21835   0.00000   0.00000   0.00000   0.00000   3.13462  -0.40992  56.95603
      26 2002 12 21  0  1 39 885  3.9624    157.96326   1320.01346   1016.00526    -19.13673      5.64692     -3.86410    177.9    149.5      6.5     -6.1    528.9     72.1    149.2    149.2 149.21835 149.21835   0.00000   0.00000   0.00000   0.00000   3.13433  -0.40992  56.89522
      27 2002 12 21  0  1 43 843  3.9582    157.95998   1320.41933   1016.16625    -19.42086      5.91551     -3.97100    177.9    149.5      6.5     -6.1    529.0     72.1    149.2    149.2 149.21835 149.21835   0.00000   0.00000   0.00000   0.00000   3.13404  -0.40992  56.87029
      28 2002 12 21  0  1 47 797  3.9545    157.95551   1320.81837   1016.32547    -20.71608      6.12096     -4.07302    177.9    149.5      6.5     -6.1    529.1     72.0    149.2    149.2 149.21835 149.21835   0.00000   0.00000   0.00000   0.00000   3.13375  -0.40992  56.80980
      29 2002 12 21  0  1 51 749  3.9513    157.95022   1321.21095   1016.48279    -21.58776      6.56474     -4.16965    177.9    149.5      6.5     -6.1    529.2     72.0    149.2    149.2 149.21835 149.21835   0.00000   0.00000   0.00000   0.00000   3.13347  -0.40992  56.78640
      30 2002 12 21  0  1 55 697  3.9487    157.94428   1321.59713   1016.63824    -21.83448      6.73510     -4.26065    177.9    149.5      6.5     -6.1    529.4     72.0    149.2    149.2 149.21835 149.21835   0.00000   0.00000   0.00000   0.00000   3.13318  -0.40992  56.72517
      31 2002 12 21  0  1 59 644  3.9465    157.93758   1321.97608   1016.79170    -23.40100      7.05565     -4.34603    177.9    149.5      6.4     -6.1    529.5     71.9    149.2    149.2 149.21835 149.21835   0.00000   0.00000   0.00000   0.00000   3.13289  -0.40992  56.70311
      32 2002 12 21  0  2  3 589  3.9447    157.93011   1322.34903   1016.94322    -24.17575      7.47367     -4.42558    177.9    149.5      6.4     -6.1    529.5     72.0    149.2    149.2 149.21835 149.21835   0.00000   0.00000   0.00000   0.00000   3.13260  -0.40992  56.64287
      33 2002 12 21  0  2  7 532  3.9433    157.92237   1322.71629   1017.09280    -24.39811      7.66641     -4.49900    177.9    149.5      6.4     -6.2    529.5     72.1    148.2    148.2 148.17428 148.17428   0.00000   0.00000   0.00000   0.00000   3.13232  -0.40992  56.62169
      34 2002 12 21  0  2 11 472  3.9403    157.91473   1323.07781   1017.24034    -26.08655      8.16449     -4.56623    177.9    149.5      6.4     -6.2    529.6     72.2    148.2    148.2 148.17428 148.17428   0.00000   0.00000   0.00000   0.00000   3.13203  -0.40992  56.56144
      35 2002 12 21  0  2 15 412  3.9396    157.90587   1323.43408   1017.38579    -26.93792      8.72457     -4.62674    177.9    149.5      6.4     -6.2    529.6     72.3    148.2    148.2 148.17428 148.17428   0.00000   0.00000   0.00000   0.00000   3.13175  -0.40992  56.54169
      36 2002 12 21  0  2 19 351  3.9393    157.89454   1323.78527   1017.52919    -26.62773      9.31928     -4.68062    177.9    149.5      6.4     -6.2    529.6     72.4    148.2    148.2 148.17428 148.17428   0.00000   0.00000   0.00000   0.00000   3.13146  -0.40992  56.48268
      37 2002 12 21  0  2 23 290  3.9393    157.88444   1324.13218   1017.67045    -28.52936      9.92089     -4.72793    177.9    149.5      6.4     -6.2    529.7     72.6    148.2    148.2 148.17428 148.17428   0.00000   0.00000   0.00000   0.00000   3.13117  -0.40992  56.46379
      38 2002 12 21  0  2 27 230  3.9397    157.87548   1324.87027   1017.80963    -29.68543     10.52771     -4.76866    177.9    149.5      6.3     -6.2    529.7     72.7    148.2    148.2 148.17428 148.17428   0.00000   0.00000   0.00000   0.00000   3.13089  -0.40992  56.40413
      39 2002 12 21  0  2 31 171  3.9405    157.86768   1325.60021   1017.94668    -29.66279     11.13801     -4.80278    177.9    149.5      6.3     -6.2    529.7     72.8    148.2    148.2 148.17428 148.17428   0.00000   0.00000   0.00000   0.00000   3.13060  -0.40992  56.38602
      40 2002 12 21  0  2 35 112  3.9415    157.86122   1326.32193   1018.08167    -30.46017     11.75044     -4.83037    177.9    149.5      6.3     -6.3    529.8     72.9    148.2    148.2 148.17428 148.17428   0.00000   0.00000   0.00000   0.00000   3.13031  -0.40992  56.32748
      41 2002 12 21  0  2 39  55  3.9428    157.85624   1327.03533   1018.21454    -32.04905     12.36325     -4.85152    177.9    149.5      6.3     -6.3    529.8     73.0    148.2    148.2 148.17428 148.17428   0.00000   0.00000   0.00000   0.00000   3.13003  -0.40992  56.31024
      42 2002 12 21  0  2 42 999  3.9443    157.85281   1327.74037   1018.34538    -32.57522     12.97424     -4.86632    177.9    149.5      6.3     -6.3    529.8     73.1    148.2    148.2 148.17428 148.17428   0.00000   0.00000   0.00000   0.00000   3.12974  -0.40992  56.25106
      43 2002 12 21  0  2 46 945  3.9459    157.84947   1328.43745   1018.47414    -31.88036     13.58175     -4.87464    177.9    149.5      6.3     -6.3    529.8     73.2    148.2    148.2 148.17428 148.17428   0.00000   0.00000   0.00000   0.00000   3.12945  -0.40992  56.23460
      44 2002 12 21  0  2 50 893  3.9476    157.84400   1329.12585   1018.60093    -33.86815     14.18478     -4.87650    177.9    149.5      6.3     -6.3    529.9     73.3    148.2    148.2 148.17428 148.17428   0.00000   0.00000   0.00000   0.00000   3.12916  -0.40992  56.17643
      45 2002 12 21  0  2 54 842  3.9494    157.83912   1329.80545   1018.72572    -35.07609     14.78040     -4.87180    177.9    149.5      6.2     -6.3    529.9     73.4    148.2    148.2 148.17428 148.17428   0.00000   0.00000   0.00000   0.00000   3.12888  -0.40992  56.16079
      46 2002 12 21  0  2 58 793  3.9513    157.83483   1330.47616   1018.84862    -34.97402     15.36674     -4.86008    177.9    149.5      6.2     -6.4    529.9     73.5    148.2    148.2 148.17428 148.17428   0.00000   0.00000   0.00000   0.00000   3.12859  -0.40992  56.10209
      47 2002 12 21  0  3  2 746  3.9532    157.83112   1331.13784   1018.96964    -35.08893     15.94205     -4.84107    177.9    149.5      6.2     -6.3    530.0     73.7    148.2    148.2 148.17428 148.17428   0.00000   0.00000   0.00000   0.00000   3.12830  -0.40992  56.08717
      48 2002 12 21  0  3  6 702  3.9552    157.82796   1331.79494   1019.08911    -36.97374     16.50525     -4.81421    177.9    149.5      6.2     -6.3    530.1     73.9    152.5    152.5 152.46373 152.46373   0.00000   0.00000   0.00000   0.00000   3.12802  -0.40992  56.02919
      49 2002 12 21  0  3 10 656  3.9543    157.82529   1332.44328   1019.20684    -37.89202     17.05591     -4.77928    177.9    149.5      6.3     -6.3    530.2     74.1    152.5    152.5 152.46373 152.46373   0.00000   0.00000   0.00000   0.00000   3.12773  -0.40992  56.01506
      50 2002 12 21  0  3 14 612  3.9564    157.82315   1333.08291   1019.32301    -37.40016     17.59168     -4.73459    177.9    149.5      6.3     -6.3    530.3     74.3    152.5    152.5 152.46373 152.46373   0.00000   0.00000   0.00000   0.00000   3.12744  -0.40992  55.95714
      51 2002 12 21  0  3 18 571  3.9584    157.82184   1333.71380   1019.43763    -38.07805     18.11083     -4.67955    177.9    149.5      6.3     -6.3    530.4     74.6    152.5    152.5 152.46373 152.46373   0.00000   0.00000   0.00000   0.00000   3.12715  -0.40992  55.94363
      52 2002 12 21  0  3 22 531  3.9605    157.82111   1334.33601   1019.55089    -39.74916     18.68663     -4.61314    177.9    149.5      6.3     -6.2    530.5     74.8    152.5    152.5 152.46373 152.46373   0.00000   0.00000   0.00000   0.00000   3.12686  -0.40992  55.88628
      53 2002 12 21  0  3 26 494  3.9625    157.82058   1334.94985   1019.66285    -40.32527     20.04753     -4.53427    177.9    149.5      6.3     -6.2    530.6     75.0    152.5    152.5 152.46373 152.46373   0.00000   0.00000   0.00000   0.00000   3.12658  -0.40992  55.87350
      54 2002 12 21  0  3 30 458  3.9644    157.81995   1335.55541   1019.77371    -39.41010     21.03654     -4.44170    177.9    149.5      6.3     -6.2    530.7     75.2    152.5    152.5 152.46373 152.46373   0.00000   0.00000   0.00000   0.00000   3.12629  -0.40992  55.81561
      55 2002 12 21  0  3 34 425  3.9663    157.81933   1336.15294   1019.88355    -40.28842     21.76613     -4.33431    177.9    149.5      6.3     -6.2    530.8     75.4    152.5    152.5 152.46373 152.46373   0.00000   0.00000   0.00000   0.00000   3.12600  -0.40992  55.80339
      56 2002 12 21  0  3 38 393  3.9680    157.81987   1336.74268   1019.99260    -41.70442     23.40787     -4.21110    177.9    149.5      6.3     -6.2    530.9     75.6    152.5    152.5 152.46373 152.46373   0.00000   0.00000   0.00000   0.00000   3.12571  -0.40992  55.74639
      57 2002 12 21  0  3 42 362  3.9696    157.82124   1337.32510   1020.10096    -41.98260     24.94974     -4.07112    177.9    149.5      6.3     -6.1    531.0     75.8    152.5    152.5 152.46373 152.46373   0.00000   0.00000   0.00000   0.00000   3.12542  -0.40992  55.73483
      58 2002 12 21  0  3 46 333  3.9711    157.82230   1337.90060   1020.20888    -40.74515     25.92938     -3.91360    177.9    149.5      6.4     -6.1    531.0     76.0    152.5    152.5 152.46373 152.46373   0.00000   0.00000   0.00000   0.00000   3.12513  -0.40992  55.67759
      59 2002 12 21  0  3 50 306  3.9725    157.82312   1338.46983   1020.31647    -41.66130     26.45508     -3.73797    177.9    149.5      6.4     -6.1    531.1     76.2    152.5    152.5 152.46373 152.46373   0.00000   0.00000   0.00000   0.00000   3.12484  -0.40992  55.66662
      60 2002 12 21  0  3 54 279  3.9737    157.82417   1339.03344   1020.42401    -42.73888     28.49710     -3.54395    177.9    149.5      6.4     -6.1    531.2     76.4    152.5    152.5 152.46373 152.46373   0.00000   0.00000   0.00000   0.00000   3.12456  -0.40992  55.60956
      61 2002 12 21  0  3 58 254  3.9747    157.82558   1339.59215   1020.53160    -42.74264     30.13142     -3.33149    177.9    149.5      6.4     -6.0    531.3     76.6    152.5    152.5 152.46373 152.46373   0.00000   0.00000   0.00000   0.00000   3.12427  -0.40992  55.59912
      62 2002 12 21  0  4  2 230  3.9756    157.82714   1340.14672   1020.63953    -41.24679     31.04381     -3.10085    177.9    149.5      6.4     -6.1    531.5     76.8    152.5    152.5 152.46373 152.46373   0.00000   0.00000   0.00000   0.00000   3.12398  -0.40992  55.54250
      63 2002 12 21  0  4  6 206  3.9763    157.82864   1340.69151   1020.74746    -42.18680     31.39471     -2.85257    177.9    149.5      6.3     -6.1    531.6     76.8    163.4    163.4 163.37593 163.37593   0.00000   0.00000   0.00000   0.00000   3.12369  -0.40992  55.53279
      64 2002 12 21  0  4 10 187  3.9813    157.82995   1341.23311   1020.85607    -42.81377     33.59402     -2.58653    177.9    149.5      6.2     -6.1    531.8     76.8    163.4    163.4 163.37593 163.37593   0.00000   0.00000   0.00000   0.00000   3.12340  -0.40992  55.47630
      65 2002 12 21  0  4 14 169  3.9819    157.83108   1341.77231   1020.96542    -42.50823     35.36930     -2.30529    177.9    149.5      6.2     -6.1    531.9     76.9    163.4    163.4 163.37593 163.37593   0.00000   0.00000   0.00000   0.00000   3.12311  -0.40992  55.46716
      66 2002 12 21  0  4 18 151  3.9822    157.83210   1342.31006   1021.07579    -40.84109     36.33819     -2.00966    177.9    149.5      6.1     -6.2    532.1     76.9    163.4    163.4 163.37593 163.37593   0.00000   0.00000   0.00000   0.00000   3.12282  -0.40992  55.40785
      67 2002 12 21  0  4 22 134  3.9824    157.83301   1342.84725   1021.18728    -41.85311     36.60094     -1.70110    177.9    149.5      6.1     -6.2    532.2     76.9    163.4    163.4 163.37593 163.37593   0.00000   0.00000   0.00000   0.00000   3.12253  -0.40992  55.39917
      68 2002 12 21  0  4 26 116  3.9824    157.83372   1343.38459   1021.30011    -42.09288     38.48764     -1.38127    177.9    149.5      6.0     -6.2    532.4     77.0    163.4    163.4 163.37593 163.37593   0.00000   0.00000   0.00000   0.00000   3.12224  -0.40992  55.34364
      69 2002 12 21  0  4 30  99  3.9823    157.83417   1343.92267   1021.41435    -41.20967     40.50192     -1.05195    177.9    149.5      5.9     -6.2    532.5     77.0    163.4    163.4 163.37593 163.37593   0.00000   0.00000   0.00000   0.00000   3.12195  -0.40992  55.33585
      70 2002 12 21  0  4 34  80  3.9814    157.83434   1344.46182   1021.53018    -40.06650     41.66363     -0.71521    177.9    149.5      5.9     -6.3    532.7     77.1    163.4    163.4 163.37593 163.37593   0.00000   0.00000   0.00000   0.00000   3.12166  -0.40992  55.27790
      71 2002 12 21  0  4 38  60  3.9802    157.83423   1345.00226   1021.64761    -40.64293     41.97415     -0.37284    177.9    149.5      5.8     -6.3    532.8     77.1    163.4    163.4 163.37593 163.37593   0.00000   0.00000   0.00000   0.00000   3.12137  -0.40992  55.27027
      72 2002 12 21  0  4 42  39  3.9790    157.83383   1345.54379   1021.76683    -40.44713     43.19686     -0.02668    177.9    149.5      5.8     -6.3    533.0     77.1    163.4    163.4 163.37593 163.37593   0.00000   0.00000   0.00000   0.00000   3.12108  -0.40992  55.21497
      73 2002 12 21  0  4 46  17  3.9778    157.83309   1346.08623   1021.88782    -39.14904     45.30268      0.32152    177.9    149.5      5.7     -6.3    533.2     77.2    163.4    163.4 163.37593 163.37593   0.00000   0.00000   0.00000   0.00000   3.12079  -0.40992  55.20806
      74 2002 12 21  0  4 49 994  3.9766    157.83205   1346.62908   1022.01073    -38.51638     46.81375      0.67005    177.9    149.5      5.7     -6.4    533.3     77.2    163.4    163.4 163.37593 163.37593   0.00000   0.00000   0.00000   0.00000   3.12050  -0.40992  55.15026
      75 2002 12 21  0  4 53 969  3.9754    157.83073   1347.17150   1022.13554    -38.61655     47.37658      1.01740    177.9    149.5      5.6     -6.4    533.5     77.2    163.4    163.4 163.37593 163.37593   0.00000   0.00000   0.00000   0.00000   3.12021  -0.40992  55.14337
      76 2002 12 21  0  4 57 943  3.9742    157.82910   1347.71223   1022.26240    -37.95795     48.25626      1.36219    177.9    149.5      5.5     -6.4    533.6     77.3    163.4    163.4 163.37593 163.37593   0.00000   0.00000   0.00000   0.00000   3.11993  -0.40992  55.08866
      77 2002 12 21  0  5  0   0  2.0563    157.83140   1348.01096   1022.32687    -37.96569     48.85057      1.44157    177.9    149.5      5.5     -6.4    533.7     77.3    163.4    163.4 163.37593 163.37593   0.00000   0.00000   0.00000   0.00000   3.11978  -0.40992  55.08634
