GITM2 log file
## Inputs from UAM.in
# Resart= F
# Eddy coef:    50.000 Eddy P0:     0.010 Eddy P1:     0.005
# Statistical Models Only:  F Apex:  F
# EUV Data:  TFile: 
UA/DataIn/FISM/fismflux_daily_2002.dat                                                                                                                                                                                                                                                                                                                                                                                                                                                                                                                                                                                  
# E-Field Model: weimer05 Auroral Model: FTA
# AMIE: none           
none                                                                                                                                                                                                                                                                                                                                                                                                                                                                                                                                                                                                                    
# Solar Heating:  T Joule Heating:  T
# NO Cooling:  T O Cooling:  T
# Conduction:  T Turbulent Conduction:  T
# Pressure Grad:  T Ion Drag:  T Neutral Drag:  T
# Viscosity:  T Coriolis:  T Gravity:  T
# Ion Chemistry:  T Ion Advection:  T Neutral Chemistry:  T
 
#START
   iStep yyyy mm dd hh mm ss  ms      dt min(T) max(T) mean(T) min(VV) max(VV) mean(VV) F107 F107A By Bz Vx HP HPn HPs HPn_diff HPs_diff HPn_w HPs_w HPn_m HPs_m SubsolarLon SubsolarLat SubsolarVTEC
       2 2002 12 21  0  0  4 105  4.1058    157.62863   1317.06364   1012.07579     -4.35960      5.73684      0.15888    177.9    149.5      6.1     -6.0    531.2     71.9    146.3    146.3 146.25404 146.25404   0.00000   0.00000   0.00000   0.00000   3.14129  -0.40992  59.24285
       3 2002 12 21  0  0  8  37  3.9320    157.58406   1317.55113   1012.50590     -8.35882      6.39370     -0.12219    177.9    149.5      6.2     -6.0    531.0     72.0    146.3    146.3 146.25404 146.25404   0.00000   0.00000   0.00000   0.00000   3.14101  -0.40992  61.59571
       4 2002 12 21  0  0 11 894  3.8564    157.61793   1317.95786   1012.92474     -9.31822      6.52895     -0.28680    177.9    149.5      6.2     -6.0    530.7     72.0    146.3    146.3 146.25404 146.25404   0.00000   0.00000   0.00000   0.00000   3.14073  -0.40992  60.89528
       5 2002 12 21  0  0 15 771  3.8775    157.67718   1318.34385   1013.34546     -9.32434      5.90040     -0.41273    177.9    149.5      6.2     -6.0    530.5     72.0    146.3    146.3 146.25404 146.25404   0.00000   0.00000   0.00000   0.00000   3.14045  -0.40992  61.27679
       6 2002 12 21  0  0 19 594  3.8226    157.74497   1318.72579   1013.75987    -10.37176      6.11137     -0.53013    177.9    149.5      6.3     -6.0    530.2     72.1    146.3    146.3 146.25404 146.25404   0.00000   0.00000   0.00000   0.00000   3.14017  -0.40992  61.18752
       7 2002 12 21  0  0 23 397  3.8030    157.81756   1319.10949   1014.17238    -10.85385      6.64787     -0.62967    177.9    149.5      6.3     -6.0    530.0     72.1    146.3    146.3 146.25404 146.25404   0.00000   0.00000   0.00000   0.00000   3.13989  -0.40992  61.25356
       8 2002 12 21  0  0 27 175  3.7786    157.87148   1319.50046   1014.58211    -11.90767      7.36407     -0.71999    177.9    149.5      6.3     -6.0    529.8     72.2    146.3    146.3 146.25404 146.25404   0.00000   0.00000   0.00000   0.00000   3.13962  -0.40992  61.21970
       9 2002 12 21  0  0 30 933  3.7572    157.91288   1319.90009   1014.98938    -13.17712      7.88578     -0.80697    177.9    149.5      6.4     -6.0    529.5     72.2    146.3    146.3 146.25404 146.25404   0.00000   0.00000   0.00000   0.00000   3.13934  -0.40992  61.22473
      10 2002 12 21  0  0 34 676  3.7433    157.95532   1320.30925   1015.39502    -13.48564      8.81126     -0.89034    177.9    149.5      6.4     -6.0    529.3     72.3    146.3    146.3 146.25404 146.25404   0.00000   0.00000   0.00000   0.00000   3.13907  -0.40992  61.18972
      11 2002 12 21  0  0 38 418  3.7422    158.00900   1320.72889   1015.80038    -15.06258     10.01985     -0.97012    177.9    149.5      6.4     -6.0    529.0     72.3    146.3    146.3 146.25404 146.25404   0.00000   0.00000   0.00000   0.00000   3.13880  -0.40992  61.17784
      12 2002 12 21  0  0 42 161  3.7432    158.08015   1321.15919   1016.20549    -16.44680     10.81645     -1.04327    177.9    149.5      6.5     -6.0    528.8     72.4    146.3    146.3 146.25404 146.25404   0.00000   0.00000   0.00000   0.00000   3.13853  -0.40992  61.13830
      13 2002 12 21  0  0 45 907  3.7461    158.15232   1321.59946   1016.61017    -17.51363     11.76621     -1.10765    177.9    149.5      6.5     -6.0    528.6     72.4    146.3    146.3 146.25404 146.25404   0.00000   0.00000   0.00000   0.00000   3.13825  -0.40992  61.11987
      14 2002 12 21  0  0 49 662  3.7550    158.20577   1322.26792   1017.01486    -18.53720     12.88753     -1.16863    177.9    149.5      6.5     -6.0    528.3     72.5    146.3    146.3 146.25404 146.25404   0.00000   0.00000   0.00000   0.00000   3.13798  -0.40992  61.07700
      15 2002 12 21  0  0 53 428  3.7653    158.24638   1323.25815   1017.41960    -19.77384     14.44883     -1.22954    177.9    149.5      6.6     -6.0    528.1     72.5    146.3    146.3 146.25404 146.25404   0.00000   0.00000   0.00000   0.00000   3.13771  -0.40992  61.05549
      16 2002 12 21  0  0 57 200  3.7720    158.27935   1324.26929   1017.82397    -21.82343     14.76907     -1.28904    177.9    149.5      6.6     -6.0    527.8     72.5    146.3    146.3 146.25404 146.25404   0.00000   0.00000   0.00000   0.00000   3.13743  -0.40992  61.01076
      17 2002 12 21  0  1  0 976  3.7767    158.31711   1325.25748   1018.22768    -22.51695     16.24368     -1.34405    177.9    149.5      6.6     -6.0    527.7     72.6    146.3    146.3 146.25404 146.25404   0.00000   0.00000   0.00000   0.00000   3.13716  -0.40992  60.98783
      18 2002 12 21  0  1  4 757  3.7806    158.36402   1326.22543   1018.63064    -24.66105     17.49541     -1.39123    177.9    149.5      6.6     -6.0    527.8     72.5    149.2    149.2 149.20098 149.20098   0.00000   0.00000   0.00000   0.00000   3.13688  -0.40992  60.94197
      19 2002 12 21  0  1  8 539  3.7817    158.41520   1327.17050   1019.03215    -25.77371     18.84906     -1.43393    177.9    149.5      6.6     -6.0    527.9     72.5    149.2    149.2 149.20098 149.20098   0.00000   0.00000   0.00000   0.00000   3.13661  -0.40992  60.91851
      20 2002 12 21  0  1 12 327  3.7882    158.45846   1328.09546   1019.43263    -28.44763     19.20661     -1.47597    177.9    149.5      6.6     -6.0    528.0     72.4    149.2    149.2 149.20098 149.20098   0.00000   0.00000   0.00000   0.00000   3.13633  -0.40992  60.87243
      21 2002 12 21  0  1 16 118  3.7909    158.48650   1329.00106   1019.83155    -29.46388     20.98138     -1.51937    177.9    149.5      6.6     -6.0    528.2     72.4    149.2    149.2 149.20098 149.20098   0.00000   0.00000   0.00000   0.00000   3.13606  -0.40992  60.84889
      22 2002 12 21  0  1 19 911  3.7936    158.50498   1329.88928   1020.22891    -31.29612     21.22147     -1.56100    177.9    149.5      6.6     -6.1    528.3     72.4    149.2    149.2 149.20098 149.20098   0.00000   0.00000   0.00000   0.00000   3.13578  -0.40992  60.80256
      23 2002 12 21  0  1 23 709  3.7973    158.52588   1330.76132   1020.62478    -33.38416     23.54026     -1.59720    177.9    149.5      6.6     -6.1    528.4     72.3    149.2    149.2 149.20098 149.20098   0.00000   0.00000   0.00000   0.00000   3.13551  -0.40992  60.77923
      24 2002 12 21  0  1 27 510  3.8013    158.55483   1331.61723   1021.01901    -34.73711     23.84446     -1.62764    177.9    149.5      6.5     -6.1    528.5     72.3    149.2    149.2 149.20098 149.20098   0.00000   0.00000   0.00000   0.00000   3.13523  -0.40992  60.73282
      25 2002 12 21  0  1 31 315  3.8049    158.58581   1332.46010   1021.41133    -37.56630     25.25708     -1.65200    177.9    149.5      6.5     -6.1    528.6     72.2    149.2    149.2 149.20098 149.20098   0.00000   0.00000   0.00000   0.00000   3.13495  -0.40992  60.70988
      26 2002 12 21  0  1 35 123  3.8081    158.60818   1333.29220   1021.80158    -37.74248     26.81967     -1.67217    177.9    149.5      6.5     -6.1    528.7     72.2    149.2    149.2 149.20098 149.20098   0.00000   0.00000   0.00000   0.00000   3.13468  -0.40992  60.66346
      27 2002 12 21  0  1 38 934  3.8112    158.62114   1334.11277   1022.18966    -40.40050     26.32083     -1.69038    177.9    149.5      6.5     -6.1    528.9     72.1    149.2    149.2 149.20098 149.20098   0.00000   0.00000   0.00000   0.00000   3.13440  -0.40992  60.64126
      28 2002 12 21  0  1 42 749  3.8143    158.63445   1334.92282   1022.57562    -42.57699     28.75999     -1.70571    177.9    149.5      6.5     -6.1    529.0     72.1    149.2    149.2 149.20098 149.20098   0.00000   0.00000   0.00000   0.00000   3.13412  -0.40992  60.59459
      29 2002 12 21  0  1 46 566  3.8174    158.65546   1335.72264   1022.95936    -42.62074     29.67181     -1.71567    177.9    149.5      6.5     -6.1    529.1     72.1    149.2    149.2 149.20098 149.20098   0.00000   0.00000   0.00000   0.00000   3.13384  -0.40992  60.57290
      30 2002 12 21  0  1 50 386  3.8198    158.68068   1336.51154   1023.34070    -46.47532     29.91001     -1.71872    177.9    149.5      6.5     -6.1    529.2     72.0    149.2    149.2 149.20098 149.20098   0.00000   0.00000   0.00000   0.00000   3.13357  -0.40992  60.52626
      31 2002 12 21  0  1 54 208  3.8218    158.70175   1337.28844   1023.71950    -47.70027     32.55068     -1.71381    177.9    149.5      6.5     -6.1    529.3     72.0    149.2    149.2 149.20098 149.20098   0.00000   0.00000   0.00000   0.00000   3.13329  -0.40992  60.50505
      32 2002 12 21  0  1 58  32  3.8244    158.71506   1338.05504   1024.09578    -47.43278     33.28407     -1.70179    177.9    149.5      6.4     -6.1    529.4     71.9    149.2    149.2 149.20098 149.20098   0.00000   0.00000   0.00000   0.00000   3.13301  -0.40992  60.45860
      33 2002 12 21  0  2  1 859  3.8274    158.72655   1339.11002   1024.46956    -51.39115     33.09805     -1.68377    177.9    149.5      6.4     -6.1    529.5     72.0    149.2    149.2 149.20098 149.20098   0.00000   0.00000   0.00000   0.00000   3.13273  -0.40992  60.43794
      34 2002 12 21  0  2  5 689  3.8301    158.74498   1340.28811   1024.84101    -52.56490     35.72297     -1.65998    177.9    149.5      6.4     -6.2    529.5     72.1    147.7    147.7 147.70036 147.70036   0.00000   0.00000   0.00000   0.00000   3.13245  -0.40992  60.39139
      35 2002 12 21  0  2  9 519  3.8298    158.77223   1341.45304   1025.20964    -52.42920     36.55213     -1.63032    177.9    149.5      6.4     -6.2    529.6     72.2    147.7    147.7 147.70036 147.70036   0.00000   0.00000   0.00000   0.00000   3.13217  -0.40992  60.37131
      36 2002 12 21  0  2 13 350  3.8310    158.80144   1342.60651   1025.57557    -56.58357     36.67673     -1.59336    177.9    149.5      6.4     -6.2    529.6     72.3    147.7    147.7 147.70036 147.70036   0.00000   0.00000   0.00000   0.00000   3.13190  -0.40992  60.32457
      37 2002 12 21  0  2 17 182  3.8318    158.82474   1343.74847   1025.93876    -57.99105     39.58971     -1.54816    177.9    149.5      6.4     -6.2    529.6     72.4    147.7    147.7 147.70036 147.70036   0.00000   0.00000   0.00000   0.00000   3.13162  -0.40992  60.30503
      38 2002 12 21  0  2 21  15  3.8330    158.84180   1344.87958   1026.29935    -55.88980     40.79550     -1.49441    177.9    149.5      6.4     -6.2    529.6     72.5    147.7    147.7 147.70036 147.70036   0.00000   0.00000   0.00000   0.00000   3.13134  -0.40992  60.25836
      39 2002 12 21  0  2 24 850  3.8345    158.86000   1346.00011   1026.65741    -60.47453     40.02390     -1.43349    177.9    149.5      6.4     -6.2    529.7     72.6    147.7    147.7 147.70036 147.70036   0.00000   0.00000   0.00000   0.00000   3.13106  -0.40992  60.23930
      40 2002 12 21  0  2 28 685  3.8356    158.88643   1347.10941   1027.01297    -62.65201     42.47152     -1.36699    177.9    149.5      6.3     -6.2    529.7     72.7    147.7    147.7 147.70036 147.70036   0.00000   0.00000   0.00000   0.00000   3.13078  -0.40992  60.19252
      41 2002 12 21  0  2 32 521  3.8356    158.92080   1348.20672   1027.36595    -61.27396     44.23983     -1.29549    177.9    149.5      6.3     -6.3    529.7     72.8    147.7    147.7 147.70036 147.70036   0.00000   0.00000   0.00000   0.00000   3.13050  -0.40992  60.17394
      42 2002 12 21  0  2 36 356  3.8347    158.95649   1349.29167   1027.71639    -64.11012     44.09273     -1.21915    177.9    149.5      6.3     -6.3    529.8     72.9    147.7    147.7 147.70036 147.70036   0.00000   0.00000   0.00000   0.00000   3.13022  -0.40992  60.12704
      43 2002 12 21  0  2 40 189  3.8334    158.98804   1350.36333   1028.06437    -67.46326     45.68353     -1.13837    177.9    149.5      6.3     -6.3    529.8     73.0    147.7    147.7 147.70036 147.70036   0.00000   0.00000   0.00000   0.00000   3.12994  -0.40992  60.10897
      44 2002 12 21  0  2 44  21  3.8323    159.01643   1351.42242   1028.41009    -67.52912     48.09753     -1.05317    177.9    149.5      6.3     -6.3    529.8     73.1    147.7    147.7 147.70036 147.70036   0.00000   0.00000   0.00000   0.00000   3.12966  -0.40992  60.06189
      45 2002 12 21  0  2 47 853  3.8314    159.04711   1352.46965   1028.75370    -65.14613     48.78824     -0.96404    177.9    149.5      6.3     -6.3    529.9     73.2    147.7    147.7 147.70036 147.70036   0.00000   0.00000   0.00000   0.00000   3.12939  -0.40992  60.04431
      46 2002 12 21  0  2 51 683  3.8306    159.08354   1353.50514   1029.09535    -69.31426     48.10811     -0.87285    177.9    149.5      6.3     -6.3    529.9     73.3    147.7    147.7 147.70036 147.70036   0.00000   0.00000   0.00000   0.00000   3.12911  -0.40992  59.99699
      47 2002 12 21  0  2 55 512  3.8292    159.12355   1354.52837   1029.43510    -70.93365     51.08971     -0.78061    177.9    149.5      6.2     -6.3    529.9     73.5    147.7    147.7 147.70036 147.70036   0.00000   0.00000   0.00000   0.00000   3.12883  -0.40992  59.98000
      48 2002 12 21  0  2 59 339  3.8270    159.16326   1355.53927   1029.77308    -68.87410     52.76558     -0.68603    177.9    149.5      6.2     -6.4    530.0     73.6    147.7    147.7 147.70036 147.70036   0.00000   0.00000   0.00000   0.00000   3.12855  -0.40992  59.93239
      49 2002 12 21  0  3  3 164  3.8244    159.20010   1356.53841   1030.10955    -71.02126     52.65402     -0.58848    177.9    149.5      6.2     -6.3    530.0     73.7    147.7    147.7 147.70036 147.70036   0.00000   0.00000   0.00000   0.00000   3.12827  -0.40992  59.91612
      50 2002 12 21  0  3  6 986  3.8219    159.23634   1357.53095   1030.44505    -74.43382     54.25467     -0.48770    177.9    149.5      6.2     -6.3    530.1     73.9    152.5    152.5 152.50295 152.50295   0.00000   0.00000   0.00000   0.00000   3.12799  -0.40992  59.86826
      51 2002 12 21  0  3 10 802  3.8159    159.27584   1358.51181   1030.77920    -74.76166     56.74283     -0.38302    177.9    149.5      6.3     -6.3    530.2     74.1    152.5    152.5 152.50295 152.50295   0.00000   0.00000   0.00000   0.00000   3.12772  -0.40992  59.85277
      52 2002 12 21  0  3 14 615  3.8133    159.31923   1359.48328   1031.11252    -71.33957     57.73321     -0.27134    177.9    149.5      6.3     -6.3    530.3     74.3    152.5    152.5 152.50295 152.50295   0.00000   0.00000   0.00000   0.00000   3.12744  -0.40992  59.80481
      53 2002 12 21  0  3 18 426  3.8108    159.36329   1360.44513   1031.44523    -73.73773     58.53248     -0.15105    177.9    149.5      6.3     -6.3    530.4     74.5    152.5    152.5 152.50295 152.50295   0.00000   0.00000   0.00000   0.00000   3.12716  -0.40992  59.79024
      54 2002 12 21  0  3 22 234  3.8083    159.40429   1361.39800   1031.77759    -75.99093     60.49094     -0.01965    177.9    149.5      6.3     -6.2    530.5     74.7    152.5    152.5 152.50295 152.50295   0.00000   0.00000   0.00000   0.00000   3.12689  -0.40992  59.74157
      55 2002 12 21  0  3 26  40  3.8061    159.44196   1362.34278   1032.10978    -75.19262     62.05634      0.12623    177.9    149.5      6.3     -6.2    530.6     74.9    152.5    152.5 152.50295 152.50295   0.00000   0.00000   0.00000   0.00000   3.12661  -0.40992  59.72785
      56 2002 12 21  0  3 29 844  3.8039    159.47981   1363.28026   1032.44214    -73.69498     63.52489      0.28915    177.9    149.5      6.3     -6.2    530.7     75.1    152.5    152.5 152.50295 152.50295   0.00000   0.00000   0.00000   0.00000   3.12633  -0.40992  59.67866
      57 2002 12 21  0  3 33 646  3.8019    159.52100   1364.21137   1032.77503    -76.98759     65.93272      0.47000    177.9    149.5      6.3     -6.2    530.7     75.3    152.5    152.5 152.50295 152.50295   0.00000   0.00000   0.00000   0.00000   3.12606  -0.40992  59.66583
      58 2002 12 21  0  3 37 446  3.7997    159.56488   1365.13697   1033.10869    -78.35108     67.40214      0.67055    177.9    149.5      6.3     -6.2    530.8     75.5    152.5    152.5 152.50295 152.50295   0.00000   0.00000   0.00000   0.00000   3.12578  -0.40992  59.61587
      59 2002 12 21  0  3 41 243  3.7972    159.60779   1366.05816   1033.44326    -77.16437     70.75798      0.89293    177.9    149.5      6.3     -6.1    530.9     75.7    152.5    152.5 152.50295 152.50295   0.00000   0.00000   0.00000   0.00000   3.12550  -0.40992  59.60399
      60 2002 12 21  0  3 45  37  3.7945    159.64693   1366.97629   1033.77894    -75.16382     73.42865      1.13913    177.9    149.5      6.4     -6.1    531.0     75.9    152.5    152.5 152.50295 152.50295   0.00000   0.00000   0.00000   0.00000   3.12523  -0.40992  59.55357
      61 2002 12 21  0  3 48 829  3.7919    159.68290   1367.89283   1034.11601    -77.65800     74.06715      1.40980    177.9    149.5      6.4     -6.1    531.1     76.1    152.5    152.5 152.50295 152.50295   0.00000   0.00000   0.00000   0.00000   3.12495  -0.40992  59.54239
      62 2002 12 21  0  3 52 619  3.7894    159.71945   1368.80931   1034.45468    -78.22268     76.80516      1.70494    177.9    149.5      6.4     -6.1    531.2     76.3    152.5    152.5 152.50295 152.50295   0.00000   0.00000   0.00000   0.00000   3.12468  -0.40992  59.49207
      63 2002 12 21  0  3 56 406  3.7873    159.75861   1369.72736   1034.79507    -77.04087     80.66219      2.02384    177.9    149.5      6.4     -6.1    531.3     76.5    152.5    152.5 152.50295 152.50295   0.00000   0.00000   0.00000   0.00000   3.12440  -0.40992  59.48153
      64 2002 12 21  0  4  0 192  3.7856    159.79919   1370.64878   1035.13740    -76.18237     83.52256      2.36450    177.9    149.5      6.4     -6.0    531.4     76.7    152.5    152.5 152.50295 152.50295   0.00000   0.00000   0.00000   0.00000   3.12413  -0.40992  59.43155
      65 2002 12 21  0  4  3 976  3.7842    159.83832   1371.56981   1035.48156    -78.10579     84.10265      2.72356    177.9    149.5      6.3     -6.1    531.5     76.8    163.8    163.8 163.80353 163.80353   0.00000   0.00000   0.00000   0.00000   3.12385  -0.40992  59.42187
      66 2002 12 21  0  4  7 764  3.7881    159.87491   1372.49904   1035.82841    -78.72690     84.61420      3.09930    177.9    149.5      6.3     -6.1    531.7     76.8    163.8    163.8 163.80353 163.80353   0.00000   0.00000   0.00000   0.00000   3.12357  -0.40992  59.37215
      67 2002 12 21  0  4 11 551  3.7874    159.91049   1373.43584   1036.17752    -77.15244     90.22291      3.48697    177.9    149.5      6.2     -6.1    531.8     76.8    163.8    163.8 163.80353 163.80353   0.00000   0.00000   0.00000   0.00000   3.12330  -0.40992  59.36289
      68 2002 12 21  0  4 15 338  3.7866    159.94730   1374.38347   1036.52887    -75.21730     93.51341      3.88416    177.9    149.5      6.2     -6.1    532.0     76.9    163.8    163.8 163.80353 163.80353   0.00000   0.00000   0.00000   0.00000   3.12302  -0.40992  59.31253
      69 2002 12 21  0  4 19 124  3.7859    159.98551   1375.34450   1036.88244    -76.51752     94.91281      4.28628    177.9    149.5      6.1     -6.2    532.1     76.9    163.8    163.8 163.80353 163.80353   0.00000   0.00000   0.00000   0.00000   3.12275  -0.40992  59.30403
      70 2002 12 21  0  4 22 909  3.7852    160.02253   1376.32143   1037.23822    -76.90592     94.56511      4.68956    177.9    149.5      6.1     -6.2    532.3     77.0    163.8    163.8 163.80353 163.80353   0.00000   0.00000   0.00000   0.00000   3.12247  -0.40992  59.25455
      71 2002 12 21  0  4 26 694  3.7846    160.05594   1377.31698   1037.59604    -74.84403     98.99561      5.09165    177.9    149.5      6.0     -6.2    532.4     77.0    163.8    163.8 163.80353 163.80353   0.00000   0.00000   0.00000   0.00000   3.12220  -0.40992  59.24667
      72 2002 12 21  0  4 30 478  3.7841    160.08599   1378.33385   1037.95574    -73.56464    102.88156      5.49012    177.9    149.5      5.9     -6.2    532.6     77.0    163.8    163.8 163.80353 163.80353   0.00000   0.00000   0.00000   0.00000   3.12192  -0.40992  59.19714
      73 2002 12 21  0  4 34 262  3.7837    160.11521   1379.37503   1038.31707    -74.97761    104.32041      5.88158    177.9    149.5      5.9     -6.3    532.7     77.1    163.8    163.8 163.80353 163.80353   0.00000   0.00000   0.00000   0.00000   3.12165  -0.40992  59.18973
      74 2002 12 21  0  4 38  45  3.7835    160.14575   1380.44358   1038.67986    -74.66638    104.31553      6.26360    177.9    149.5      5.8     -6.3    532.8     77.1    163.8    163.8 163.80353 163.80353   0.00000   0.00000   0.00000   0.00000   3.12137  -0.40992  59.14064
      75 2002 12 21  0  4 41 828  3.7834    160.17754   1381.54280   1039.04379    -72.00903    107.05841      6.63548    177.9    149.5      5.8     -6.3    533.0     77.1    163.8    163.8 163.80353 163.80353   0.00000   0.00000   0.00000   0.00000   3.12110  -0.40992  59.13372
      76 2002 12 21  0  4 45 612  3.7836    160.20891   1382.67607   1039.40852    -71.36476    111.58328      6.99734    177.9    149.5      5.7     -6.3    533.1     77.2    163.8    163.8 163.80353 163.80353   0.00000   0.00000   0.00000   0.00000   3.12082  -0.40992  59.08459
      77 2002 12 21  0  4 49 396  3.7840    160.23885   1383.84675   1039.77356    -71.84695    114.51048      7.34965    177.9    149.5      5.7     -6.4    533.3     77.2    163.8    163.8 163.80353 163.80353   0.00000   0.00000   0.00000   0.00000   3.12055  -0.40992  59.07810
      78 2002 12 21  0  4 53 181  3.7845    160.26809   1385.05809   1040.13851    -70.57223    116.52442      7.69313    177.9    149.5      5.6     -6.4    533.4     77.2    163.8    163.8 163.80353 163.80353   0.00000   0.00000   0.00000   0.00000   3.12027  -0.40992  59.02921
      79 2002 12 21  0  4 56 966  3.7852    160.29814   1386.31322   1040.50289    -67.55547    115.88517      8.02834    177.9    149.5      5.6     -6.4    533.6     77.3    163.8    163.8 163.80353 163.80353   0.00000   0.00000   0.00000   0.00000   3.12000  -0.40992  59.02315
      80 2002 12 21  0  5  0 752  3.7858    160.32956   1387.61507   1040.86620    -68.23149    119.04570      8.35640    177.9    149.5      5.5     -6.4    533.7     77.3    163.8    163.8 163.80353 163.80353   0.00000   0.00000   0.00000   0.00000   3.11972  -0.40992  58.97414
      81 2002 12 21  0  5  4 538  3.7865    160.36126   1388.97331   1041.22842    -67.53995    121.94234      8.67830    177.9    149.5      5.5     -6.4    533.8     77.1    166.0    166.0 166.01196 166.01196   0.00000   0.00000   0.00000   0.00000   3.11945  -0.40992  58.96886
      82 2002 12 21  0  5  8 322  3.7844    160.39171   1390.38313   1041.58838    -65.11720    124.50493      8.99508    177.9    149.5      5.5     -6.4    533.8     76.9    166.0    166.0 166.01196 166.01196   0.00000   0.00000   0.00000   0.00000   3.11917  -0.40992  58.91980
      83 2002 12 21  0  5 12 107  3.7851    160.42053   1391.84772   1041.94574    -64.11378    125.42446      9.30717    177.9    149.5      5.4     -6.5    533.9     76.8    166.0    166.0 166.01196 166.01196   0.00000   0.00000   0.00000   0.00000   3.11890  -0.40992  58.91441
      84 2002 12 21  0  5 15 893  3.7858    160.44875   1393.36743   1042.29998    -63.50488    125.64633      9.61460    177.9    149.5      5.4     -6.5    534.0     76.6    166.0    166.0 166.01196 166.01196   0.00000   0.00000   0.00000   0.00000   3.11862  -0.40992  58.86696
      85 2002 12 21  0  5 19 680  3.7864    160.47772   1394.94252   1042.65052    -61.47959    129.19471      9.91730    177.9    149.5      5.4     -6.5    534.0     76.5    166.0    166.0 166.01196 166.01196   0.00000   0.00000   0.00000   0.00000   3.11834  -0.40992  58.86211
      86 2002 12 21  0  5 23 467  3.7869    160.50777   1396.57256   1042.99695    -60.27909    132.93085     10.21433    177.9    149.5      5.3     -6.5    534.1     76.3    166.0    166.0 166.01196 166.01196   0.00000   0.00000   0.00000   0.00000   3.11807  -0.40992  58.81437
      87 2002 12 21  0  5 27 254  3.7872    160.53817   1398.25619   1043.33890    -59.45252    135.23777     10.50441    177.9    149.5      5.3     -6.5    534.1     76.2    166.0    166.0 166.01196 166.01196   0.00000   0.00000   0.00000   0.00000   3.11779  -0.40992  58.80999
      88 2002 12 21  0  5 31  41  3.7875    160.56822   1399.99106   1043.67616    -57.37866    134.93843     10.78595    177.9    149.5      5.3     -6.5    534.2     76.0    166.0    166.0 166.01196 166.01196   0.00000   0.00000   0.00000   0.00000   3.11752  -0.40992  58.76258
      89 2002 12 21  0  5 34 829  3.7877    160.59817   1401.77379   1044.00856    -56.73627    135.50794     11.05656    177.9    149.5      5.3     -6.5    534.3     75.8    166.0    166.0 166.01196 166.01196   0.00000   0.00000   0.00000   0.00000   3.11724  -0.40992  58.75873
      90 2002 12 21  0  5 38 617  3.7878    160.62898   1403.59994   1044.33613    -55.45693    138.72172     11.31421    177.9    149.5      5.2     -6.5    534.3     75.7    166.0    166.0 166.01196 166.01196   0.00000   0.00000   0.00000   0.00000   3.11697  -0.40992  58.71141
      91 2002 12 21  0  5 42 405  3.7880    160.66122   1405.46366   1044.65898    -54.30076    142.51097     11.55610    177.9    149.5      5.2     -6.5    534.4     75.5    166.0    166.0 166.01196 166.01196   0.00000   0.00000   0.00000   0.00000   3.11669  -0.40992  58.70808
      92 2002 12 21  0  5 46 193  3.7881    160.69438   1407.35685   1044.97748    -53.31463    143.72027     11.78006    177.9    149.5      5.2     -6.5    534.5     75.4    166.0    166.0 166.01196 166.01196   0.00000   0.00000   0.00000   0.00000   3.11642  -0.40992  58.66113
      93 2002 12 21  0  5 49 981  3.7883    160.72742   1409.27411   1045.29205    -52.36833    142.46706     11.98363    177.9    149.5      5.2     -6.5    534.5     75.2    166.0    166.0 166.01196 166.01196   0.00000   0.00000   0.00000   0.00000   3.11614  -0.40992  58.65835
      94 2002 12 21  0  5 53 770  3.7884    160.75981   1411.21121   1045.60339    -52.05809    143.87757     12.16512    177.9    149.5      5.1     -6.5    534.6     75.0    166.0    166.0 166.01196 166.01196   0.00000   0.00000   0.00000   0.00000   3.11587  -0.40992  58.61168
      95 2002 12 21  0  5 57 558  3.7883    160.79210   1413.15346   1045.91229    -51.23140    148.49298     12.32300    177.9    149.5      5.1     -6.5    534.6     74.9    166.0    166.0 166.01196 166.01196   0.00000   0.00000   0.00000   0.00000   3.11559  -0.40992  58.60950
      96 2002 12 21  0  6  1 346  3.7881    160.82534   1415.08774   1046.21978    -52.00500    150.94209     12.45612    177.9    149.5      5.2     -6.5    534.8     74.7    166.0    166.0 166.01196 166.01196   0.00000   0.00000   0.00000   0.00000   3.11531  -0.40992  58.56319
      97 2002 12 21  0  6  5 134  3.7878    160.86002   1417.00457   1046.52726    -53.00620    150.95648     12.56399    177.9    149.5      5.3     -6.4    535.0     74.6    159.9    159.9 159.94272 159.94272   0.00000   0.00000   0.00000   0.00000   3.11504  -0.40992  58.56175
      98 2002 12 21  0  6  8 923  3.7894    160.89562   1418.89448   1046.83600    -53.33883    148.72293     12.64645    177.9    149.5      5.5     -6.3    535.2     74.5    159.9    159.9 159.94272 159.94272   0.00000   0.00000   0.00000   0.00000   3.11476  -0.40992  58.51541
      99 2002 12 21  0  6 12 712  3.7888    160.93120   1420.74346   1047.14723    -52.99249    151.78486     12.70380    177.9    149.5      5.7     -6.2    535.4     74.5    159.9    159.9 159.94272 159.94272   0.00000   0.00000   0.00000   0.00000   3.11449  -0.40992  58.51416
     100 2002 12 21  0  6 16 500  3.7882    160.96622   1422.53975   1047.46246    -52.73517    155.00557     12.73652    177.8    149.5      5.8     -6.2    535.7     74.4    159.9    159.9 159.94272 159.94272   0.00000   0.00000   0.00000   0.00000   3.11421  -0.40992  58.46886
     101 2002 12 21  0  6 20 288  3.7875    161.00089   1424.27139   1047.78322    -53.37440    156.12484     12.74548    177.8    149.5      6.0     -6.1    535.9     74.3    159.9    159.9 159.94272 159.94272   0.00000   0.00000   0.00000   0.00000   3.11394  -0.40992  58.46812
     102 2002 12 21  0  6 24  74  3.7867    161.03575   1425.92682   1048.11108    -54.10363    155.03067     12.73211    177.8    149.5      6.1     -6.0    536.1     74.2    159.9    159.9 159.94272 159.94272   0.00000   0.00000   0.00000   0.00000   3.11366  -0.40992  58.42293
     103 2002 12 21  0  6 27 860  3.7859    161.07105   1427.49475   1048.44748    -54.16116    153.67523     12.69784    177.8    149.5      6.3     -5.9    536.4     74.1    159.9    159.9 159.94272 159.94272   0.00000   0.00000   0.00000   0.00000   3.11339  -0.40992  58.42270
     104 2002 12 21  0  6 31 645  3.7850    161.10660   1428.96467   1048.79386    -53.48680    157.10352     12.64463    177.8    149.5      6.5     -5.9    536.6     74.0    159.9    159.9 159.94272 159.94272   0.00000   0.00000   0.00000   0.00000   3.11311  -0.40992  58.37802
     105 2002 12 21  0  6 35 429  3.7841    161.14221   1430.32651   1049.15140    -54.75426    158.94542     12.57422    177.8    149.5      6.6     -5.8    536.8     73.9    159.9    159.9 159.94272 159.94272   0.00000   0.00000   0.00000   0.00000   3.11284  -0.40992  58.37824
     106 2002 12 21  0  6 39 212  3.7831    161.17801   1431.57096   1049.52116    -56.01037    158.79744     12.48808    177.8    149.5      6.8     -5.7    537.0     73.8    159.9    159.9 159.94272 159.94272   0.00000   0.00000   0.00000   0.00000   3.11256  -0.40992  58.33374
     107 2002 12 21  0  6 42 994  3.7820    161.21438   1432.69140   1049.90388    -56.73161    156.71653     12.38845    177.8    149.5      7.0     -5.7    537.3     73.7    159.9    159.9 159.94272 159.94272   0.00000   0.00000   0.00000   0.00000   3.11229  -0.40992  58.33438
     108 2002 12 21  0  6 46 775  3.7809    161.25146   1433.68116   1050.30005    -59.46586    158.03372     12.27685    177.8    149.5      7.1     -5.6    537.5     73.6    159.9    159.9 159.94272 159.94272   0.00000   0.00000   0.00000   0.00000   3.11201  -0.40992  58.29043
     109 2002 12 21  0  6 50 555  3.7798    161.28887   1434.53508   1050.70975    -61.84142    160.12945     12.15476    177.8    149.5      7.3     -5.5    537.7     73.5    159.9    159.9 159.94272 159.94272   0.00000   0.00000   0.00000   0.00000   3.11174  -0.40992  58.29152
     110 2002 12 21  0  6 54 334  3.7786    161.32594   1435.24914   1051.13280    -63.57016    160.62749     12.02365    177.8    149.5      7.5     -5.4    538.0     73.4    159.9    159.9 159.94272 159.94272   0.00000   0.00000   0.00000   0.00000   3.11146  -0.40992  58.24780
     111 2002 12 21  0  6 58 111  3.7774    161.36227   1435.82063   1051.56856    -64.50069    159.43498     11.88447    177.8    149.5      7.6     -5.4    538.2     73.3    159.9    159.9 159.94272 159.94272   0.00000   0.00000   0.00000   0.00000   3.11119  -0.40992  58.24929
     112 2002 12 21  0  7  1 887  3.7763    161.39800   1436.24847   1052.01608    -65.32881    160.34426     11.73844    177.8    149.5      7.7     -5.3    538.3     73.2    159.9    159.9 159.94272 159.94272   0.00000   0.00000   0.00000   0.00000   3.11091  -0.40992  58.20603
     113 2002 12 21  0  7  5 663  3.7751    161.43356   1436.51902   1052.47374    -68.24099    161.16989     11.58647    177.8    149.5      7.7     -5.4    538.3     73.2    152.5    152.5 152.51849 152.51849   0.00000   0.00000   0.00000   0.00000   3.11064  -0.40992  58.20809
     114 2002 12 21  0  7  9 440  3.7773    161.46927   1436.64392   1052.94031    -70.58226    161.84674     11.42983    177.8    149.5      7.6     -5.4    538.3     73.1    152.5    152.5 152.51849 152.51849   0.00000   0.00000   0.00000   0.00000   3.11036  -0.40992  58.16499
     115 2002 12 21  0  7 13 216  3.7763    161.50497   1436.62640   1053.41353    -72.17027    161.03709     11.26787    177.8    149.5      7.6     -5.4    538.3     73.0    152.5    152.5 152.51849 152.51849   0.00000   0.00000   0.00000   0.00000   3.11009  -0.40992  58.16738
     116 2002 12 21  0  7 16 991  3.7752    161.54036   1436.47140   1053.89123    -73.03013    161.19601     11.10175    177.8    149.5      7.6     -5.5    538.3     73.0    152.5    152.5 152.51849 152.51849   0.00000   0.00000   0.00000   0.00000   3.10981  -0.40992  58.12398
     117 2002 12 21  0  7 20 766  3.7741    161.57529   1436.18422   1054.37092    -74.05764    162.80717     10.93197    177.8    149.5      7.5     -5.5    538.3     72.9    152.5    152.5 152.51849 152.51849   0.00000   0.00000   0.00000   0.00000   3.10954  -0.40992  58.12681
     118 2002 12 21  0  7 24 539  3.7731    161.60995   1435.77109   1054.84994    -76.99854    163.15782     10.75868    177.8    149.5      7.5     -5.5    538.3     72.9    152.5    152.5 152.51849 152.51849   0.00000   0.00000   0.00000   0.00000   3.10926  -0.40992  58.08422
     119 2002 12 21  0  7 28 311  3.7721    161.64466   1435.23922   1055.32545    -79.27801    162.44871     10.58200    177.8    149.5      7.5     -5.6    538.3     72.8    152.5    152.5 152.51849 152.51849   0.00000   0.00000   0.00000   0.00000   3.10899  -0.40992  58.08746
     120 2002 12 21  0  7 32  82  3.7712    161.67953   1434.59672   1055.79462    -80.98847    164.25608     10.40203    177.8    149.5      7.5     -5.6    538.3     72.7    152.5    152.5 152.51849 152.51849   0.00000   0.00000   0.00000   0.00000   3.10872  -0.40992  58.04491
     121 2002 12 21  0  7 35 852  3.7702    161.71442   1433.85243   1056.25454    -82.70034    164.93635     10.21879    177.8    149.5      7.4     -5.6    538.3     72.7    152.5    152.5 152.51849 152.51849   0.00000   0.00000   0.00000   0.00000   3.10844  -0.40992  58.04843
     122 2002 12 21  0  7 39 621  3.7693    161.74908   1433.01589   1056.70243    -83.52551    165.13720     10.03225    177.8    149.5      7.4     -5.7    538.3     72.6    152.5    152.5 152.51849 152.51849   0.00000   0.00000   0.00000   0.00000   3.10817  -0.40992  58.00626
     123 2002 12 21  0  7 43 390  3.7684    161.78336   1432.09725   1057.13554    -85.07353    166.50696      9.84307    177.8    149.5      7.4     -5.7    538.3     72.6    152.5    152.5 152.51849 152.51849   0.00000   0.00000   0.00000   0.00000   3.10789  -0.40992  58.01006
     124 2002 12 21  0  7 47 157  3.7675    161.81728   1431.10710   1057.55138    -87.98532    166.97390      9.65124    177.8    149.5      7.3     -5.7    538.3     72.5    152.5    152.5 152.51849 152.51849   0.00000   0.00000   0.00000   0.00000   3.10762  -0.40992  57.96794
     125 2002 12 21  0  7 50 924  3.7667    161.85092   1430.05572   1057.94755    -90.62240    168.33297      9.45698    177.8    149.5      7.3     -5.8    538.3     72.4    152.5    152.5 152.51849 152.51849   0.00000   0.00000   0.00000   0.00000   3.10735  -0.40992  57.97196
     126 2002 12 21  0  7 54 690  3.7659    161.88434   1428.95471   1058.32200    -92.44453    169.49650      9.26044    177.8    149.5      7.3     -5.8    538.3     72.4    152.5    152.5 152.51849 152.51849   0.00000   0.00000   0.00000   0.00000   3.10707  -0.40992  57.93010
     127 2002 12 21  0  7 58 455  3.7653    161.91755   1427.81571   1058.67282    -93.24797    170.87410      9.06206    177.8    149.5      7.3     -5.8    538.3     72.3    152.5    152.5 152.51849 152.51849   0.00000   0.00000   0.00000   0.00000   3.10680  -0.40992  57.93436
     128 2002 12 21  0  8  2 220  3.7646    161.95058   1426.65021   1058.99846    -92.98228    172.89757      8.86238    177.8    149.5      7.2     -5.8    538.1     72.3    152.5    152.5 152.51849 152.51849   0.00000   0.00000   0.00000   0.00000   3.10652  -0.40992  57.89251
     129 2002 12 21  0  8  5 984  3.7640    161.98351   1425.48281   1059.29864    -95.10424    175.01809      8.66199    177.8    149.5      7.3     -5.8    537.7     72.4    149.4    149.4 149.41564 149.41564   0.00000   0.00000   0.00000   0.00000   3.10625  -0.40992  57.89713
     130 2002 12 21  0  8  9 739  3.7556    162.01636   1424.31388   1059.57086    -97.72978    176.62353      8.45963    177.8    149.5      7.3     -5.8    537.2     72.4    149.4    149.4 149.41564 149.41564   0.00000   0.00000   0.00000   0.00000   3.10598  -0.40992  57.85545
     131 2002 12 21  0  8 13 495  3.7551    162.04920   1423.15467   1059.81513    -99.48679    177.71222      8.25948    177.8    149.5      7.3     -5.8    536.8     72.5    149.4    149.4 149.41564 149.41564   0.00000   0.00000   0.00000   0.00000   3.10570  -0.40992  57.86003
     132 2002 12 21  0  8 17 249  3.7547    162.08196   1422.01444   1060.03101   -100.23679    178.10276      8.06006    177.8    149.5      7.3     -5.8    536.4     72.6    149.4    149.4 149.41564 149.41564   0.00000   0.00000   0.00000   0.00000   3.10543  -0.40992  57.81889
     133 2002 12 21  0  8 21   3  3.7542    162.11458   1422.61791   1060.21829    -99.85588    177.79284      7.86209    177.8    149.5      7.3     -5.8    536.0     72.6    149.4    149.4 149.41564 149.41564   0.00000   0.00000   0.00000   0.00000   3.10516  -0.40992  57.82369
     134 2002 12 21  0  8 24 757  3.7537    162.14709   1423.37846   1060.37721    -99.36603    176.96724      7.66634    177.8    149.5      7.3     -5.8    535.6     72.7    149.4    149.4 149.41564 149.41564   0.00000   0.00000   0.00000   0.00000   3.10489  -0.40992  57.78248
     135 2002 12 21  0  8 28 510  3.7532    162.17963   1424.10951   1060.50817   -101.88733    175.52966      7.47300    177.8    149.5      7.3     -5.8    535.2     72.7    149.4    149.4 149.41564 149.41564   0.00000   0.00000   0.00000   0.00000   3.10461  -0.40992  57.78737
     136 2002 12 21  0  8 32 263  3.7528    162.21233   1424.81059   1060.61193   -103.56129    173.49607      7.28282    177.8    149.5      7.3     -5.8    534.8     72.8    149.4    149.4 149.41564 149.41564   0.00000   0.00000   0.00000   0.00000   3.10434  -0.40992  57.74620
     137 2002 12 21  0  8 36  16  3.7524    162.24521   1425.48151   1060.68937   -104.28102    170.88531      7.09602    177.8    149.5      7.3     -5.8    534.4     72.8    149.4    149.4 149.41564 149.41564   0.00000   0.00000   0.00000   0.00000   3.10407  -0.40992  57.75127
     138 2002 12 21  0  8 39 768  3.7520    162.27818   1426.12232   1060.74167   -103.92728    167.74450      6.91324    177.8    149.5      7.3     -5.7    534.0     72.9    149.4    149.4 149.41564 149.41564   0.00000   0.00000   0.00000   0.00000   3.10379  -0.40992  57.71021
     139 2002 12 21  0  8 43 519  3.7517    162.31108   1426.73327   1060.77012   -102.45694    164.08914      6.73438    177.8    149.5      7.3     -5.7    533.6     73.0    149.4    149.4 149.41564 149.41564   0.00000   0.00000   0.00000   0.00000   3.10352  -0.40992  57.71545
     140 2002 12 21  0  8 47 271  3.7513    162.34384   1427.31491   1060.77623   -102.95110    159.92513      6.55979    177.8    149.5      7.3     -5.7    533.2     73.0    149.4    149.4 149.41564 149.41564   0.00000   0.00000   0.00000   0.00000   3.10325  -0.40992  57.67439
     141 2002 12 21  0  8 51  21  3.7509    162.37651   1427.86803   1060.76156   -104.56590    155.27988      6.38919    177.8    149.5      7.4     -5.7    532.8     73.1    149.4    149.4 149.41564 149.41564   0.00000   0.00000   0.00000   0.00000   3.10298  -0.40992  57.67978
     142 2002 12 21  0  8 54 772  3.7506    162.40922   1428.39361   1060.72788   -105.29374    150.18219      6.22252    177.8    149.5      7.4     -5.7    532.4     73.1    149.4    149.4 149.41564 149.41564   0.00000   0.00000   0.00000   0.00000   3.10270  -0.40992  57.63882
     143 2002 12 21  0  8 58 522  3.7502    162.44210   1428.89289   1060.67697   -105.05419    144.66192      6.05970    177.8    149.5      7.4     -5.7    532.0     73.2    149.4    149.4 149.41564 149.41564   0.00000   0.00000   0.00000   0.00000   3.10243  -0.40992  57.64437
     144 2002 12 21  0  9  2 272  3.7498    162.47520   1429.36725   1060.61072   -103.74551    139.22900      5.90008    177.8    149.5      7.3     -5.7    531.7     73.2    149.4    149.4 149.41564 149.41564   0.00000   0.00000   0.00000   0.00000   3.10216  -0.40992  57.60341
     145 2002 12 21  0  9  6  22  3.7495    162.50855   1429.81971   1060.53108   -102.66671    133.92624      5.74335    177.8    149.5      7.3     -5.7    531.4     73.3    150.7    150.7 150.70441 150.70441   0.00000   0.00000   0.00000   0.00000   3.10188  -0.40992  57.60918
     146 2002 12 21  0  9  9 777  3.7549    162.54213   1430.25158   1060.43981   -104.29008    128.30809      5.59017    177.8    149.5      7.2     -5.7    531.2     73.3    150.7    150.7 150.70441 150.70441   0.00000   0.00000   0.00000   0.00000   3.10161  -0.40992  57.56815
     147 2002 12 21  0  9 13 531  3.7546    162.57588   1430.66339   1060.33888   -105.08232    122.41642      5.43811    177.8    149.5      7.2     -5.7    530.9     73.3    150.7    150.7 150.70441 150.70441   0.00000   0.00000   0.00000   0.00000   3.10134  -0.40992  57.57400
     148 2002 12 21  0  9 17 285  3.7543    162.60974   1431.05716   1060.23042   -104.98834    116.28276      5.28763    177.8    149.5      7.2     -5.7    530.6     73.4    150.7    150.7 150.70441 150.70441   0.00000   0.00000   0.00000   0.00000   3.10107  -0.40992  57.53312
     149 2002 12 21  0  9 21  39  3.7540    162.64363   1431.43495   1060.11635   -103.91847    110.60701      5.13825    177.8    149.5      7.1     -5.7    530.3     73.4    150.7    150.7 150.70441 150.70441   0.00000   0.00000   0.00000   0.00000   3.10079  -0.40992  57.53910
     150 2002 12 21  0  9 24 793  3.7536    162.67753   1431.79882   1059.99869   -102.09845    105.23491      4.98960    177.8    149.5      7.1     -5.6    530.1     73.4    150.7    150.7 150.70441 150.70441   0.00000   0.00000   0.00000   0.00000   3.10052  -0.40992  57.49819
     151 2002 12 21  0  9 28 546  3.7533    162.71143   1432.15083   1059.87931   -103.61244     99.70611      4.84149    177.8    149.5      7.0     -5.6    529.8     73.5    150.7    150.7 150.70441 150.70441   0.00000   0.00000   0.00000   0.00000   3.10025  -0.40992  57.50430
     152 2002 12 21  0  9 32 299  3.7529    162.74541   1432.49302   1059.76011   -104.34574     94.05313      4.69359    177.8    149.5      7.0     -5.6    529.5     73.5    150.7    150.7 150.70441 150.70441   0.00000   0.00000   0.00000   0.00000   3.09997  -0.40992  57.46353
     153 2002 12 21  0  9 36  52  3.7524    162.77951   1432.82739   1059.64287   -104.27173     88.30839      4.54564    177.8    149.5      6.9     -5.6    529.2     73.5    150.7    150.7 150.70441 150.70441   0.00000   0.00000   0.00000   0.00000   3.09970  -0.40992  57.46978
     154 2002 12 21  0  9 39 804  3.7520    162.81374   1433.15588   1059.52936   -103.32637     82.50434      4.39770    177.8    149.5      6.9     -5.6    529.0     73.6    150.7    150.7 150.70441 150.70441   0.00000   0.00000   0.00000   0.00000   3.09943  -0.40992  57.42902
     155 2002 12 21  0  9 43 555  3.7515    162.84807   1433.48035   1059.42120   -101.98993     76.67345      4.24963    177.8    149.5      6.8     -5.6    528.7     73.6    150.7    150.7 150.70441 150.70441   0.00000   0.00000   0.00000   0.00000   3.09916  -0.40992  57.43540
     156 2002 12 21  0  9 47 306  3.7511    162.88243   1433.80264   1059.32002   -103.16064     71.50302      4.10202    177.8    149.5      6.8     -5.6    528.4     73.7    150.7    150.7 150.70441 150.70441   0.00000   0.00000   0.00000   0.00000   3.09888  -0.40992  57.39475
     157 2002 12 21  0  9 51  57  3.7506    162.91678   1434.12442   1059.22726   -103.59617     68.91766      3.95502    177.8    149.5      6.7     -5.6    528.1     73.7    150.7    150.7 150.70441 150.70441   0.00000   0.00000   0.00000   0.00000   3.09861  -0.40992  57.40125
     158 2002 12 21  0  9 54 807  3.7501    162.95115   1434.44720   1059.14434   -103.29038     67.17108      3.80888    177.8    149.5      6.7     -5.6    527.9     73.7    150.7    150.7 150.70441 150.70441   0.00000   0.00000   0.00000   0.00000   3.09834  -0.40992  57.36063
     159 2002 12 21  0  9 58 556  3.7496    162.98557   1434.77232   1059.07251   -102.18548     65.58203      3.66401    177.8    149.5      6.6     -5.6    527.6     73.8    150.7    150.7 150.70441 150.70441   0.00000   0.00000   0.00000   0.00000   3.09806  -0.40992  57.36724
     160 2002 12 21  0 10  2 306  3.7491    163.02008   1435.10100   1059.01300   -102.10279     64.59628      3.52078    177.8    149.5      6.6     -5.5    527.3     73.8    150.7    150.7 150.70441 150.70441   0.00000   0.00000   0.00000   0.00000   3.09779  -0.40992  57.32672
     161 2002 12 21  0 10  6  54  3.7486    163.05467   1435.43569   1058.96655   -102.57527     63.62624      3.37990    177.8    149.5      6.6     -5.4    527.0     73.9    151.8    151.8 151.81822 151.81822   0.00000   0.00000   0.00000   0.00000   3.09752  -0.40992  57.33353
     162 2002 12 21  0 10  9 812  3.7583    163.08938   1435.77747   1058.93430   -102.36943     62.67522      3.24396    177.8    149.5      6.6     -5.4    526.7     73.9    151.8    151.8 151.81822 151.81822   0.00000   0.00000   0.00000   0.00000   3.09725  -0.40992  57.29294
     163 2002 12 21  0 10 13 570  3.7577    163.12411   1436.12553   1058.91705   -101.45595     61.74623      3.10956    177.8    149.5      6.6     -5.3    526.5     74.0    151.8    151.8 151.81822 151.81822   0.00000   0.00000   0.00000   0.00000   3.09697  -0.40992  57.29996
     164 2002 12 21  0 10 17 327  3.7570    163.15885   1436.48061   1058.91568   -101.42756     60.84320      2.97935    177.8    149.5      6.6     -5.2    526.2     74.1    151.8    151.8 151.81822 151.81822   0.00000   0.00000   0.00000   0.00000   3.09670  -0.40992  57.25880
     165 2002 12 21  0 10 21  84  3.7565    163.19358   1436.84336   1058.93074   -101.48211     59.96884      2.85401    177.8    149.5      6.6     -5.1    525.9     74.1    151.8    151.8 151.81822 151.81822   0.00000   0.00000   0.00000   0.00000   3.09643  -0.40992  57.26594
     166 2002 12 21  0 10 24 840  3.7559    163.22828   1437.21421   1058.96274   -100.89459     59.12537      2.73389    177.8    149.5      6.6     -5.1    525.6     74.2    151.8    151.8 151.81822 151.81822   0.00000   0.00000   0.00000   0.00000   3.09615  -0.40992  57.22533
     167 2002 12 21  0 10 28 595  3.7554    163.26291   1437.59344   1059.01197   -100.51754     58.31459      2.61973    177.8    149.5      6.5     -5.0    525.4     74.3    151.8    151.8 151.81822 151.81822   0.00000   0.00000   0.00000   0.00000   3.09588  -0.40992  57.23264
     168 2002 12 21  0 10 32 350  3.7548    163.29747   1437.98122   1059.07865   -100.33862     57.53782      2.51215    177.8    149.5      6.5     -4.9    525.1     74.3    151.8    151.8 151.81822 151.81822   0.00000   0.00000   0.00000   0.00000   3.09561  -0.40992  57.19190
     169 2002 12 21  0 10 36 104  3.7541    163.33196   1438.37761   1059.16280    -99.68058     56.79597      2.41149    177.8    149.5      6.5     -4.8    524.8     74.4    151.8    151.8 151.81822 151.81822   0.00000   0.00000   0.00000   0.00000   3.09533  -0.40992  57.19930
     170 2002 12 21  0 10 39 857  3.7535    163.36639   1438.78248   1059.26440    -99.46327     56.08953      2.31846    177.8    149.5      6.5     -4.8    524.5     74.5    151.8    151.8 151.81822 151.81822   0.00000   0.00000   0.00000   0.00000   3.09506  -0.40992  57.15879
     171 2002 12 21  0 10 43 610  3.7528    163.40077   1439.19561   1059.38321    -98.97514     55.41865      2.23321    177.8    149.5      6.5     -4.7    524.3     74.5    151.8    151.8 151.81822 151.81822   0.00000   0.00000   0.00000   0.00000   3.09479  -0.40992  57.16631
     172 2002 12 21  0 10 47 362  3.7522    163.43506   1439.61669   1059.51898   -100.10671     54.78306      2.15612    177.8    149.5      6.5     -4.6    524.0     74.6    151.8    151.8 151.81822 151.81822   0.00000   0.00000   0.00000   0.00000   3.09452  -0.40992  57.12576
     173 2002 12 21  0 10 51 114  3.7515    163.46925   1440.04538   1059.67122   -100.78500     54.18220      2.08749    177.8    149.5      6.5     -4.5    523.7     74.7    151.8    151.8 151.81822 151.81822   0.00000   0.00000   0.00000   0.00000   3.09424  -0.40992  57.13336
     174 2002 12 21  0 10 54 865  3.7508    163.50336   1440.48125   1059.83946   -100.82908     53.61516      2.02740    177.8    149.5      6.5     -4.5    523.4     74.7    151.8    151.8 151.81822 151.81822   0.00000   0.00000   0.00000   0.00000   3.09397  -0.40992  57.09299
     175 2002 12 21  0 10 58 615  3.7502    163.53740   1440.92385   1060.02302   -100.26799     53.08076      1.97592    177.8    149.5      6.5     -4.4    523.2     74.8    151.8    151.8 151.81822 151.81822   0.00000   0.00000   0.00000   0.00000   3.09370  -0.40992  57.10070
     176 2002 12 21  0 11  2 364  3.7495    163.57141   1441.37263   1060.22120    -99.13792     52.57763      1.93303    177.8    149.5      6.5     -4.4    523.3     74.9    151.8    151.8 151.81822 151.81822   0.00000   0.00000   0.00000   0.00000   3.09342  -0.40992  57.06031
     177 2002 12 21  0 11  6 113  3.7488    163.60539   1441.82819   1060.43181    -97.48138     52.10425      1.89888    177.8    149.5      6.5     -4.5    523.5     75.1    154.3    154.3 154.28702 154.28702   0.00000   0.00000   0.00000   0.00000   3.09315  -0.40992  57.06823
     178 2002 12 21  0 11  9 891  3.7778    163.63955   1442.29369   1060.65703    -95.34636     51.66214      1.87937    177.8    149.5      6.5     -4.6    523.8     75.2    154.3    154.3 154.28702 154.28702   0.00000   0.00000   0.00000   0.00000   3.09288  -0.40992  57.02774
     179 2002 12 21  0 11 13 668  3.7770    163.67370   1442.76372   1060.89384    -92.75942     51.24285      1.86173    177.8    149.5      6.5     -4.7    524.1     75.4    154.3    154.3 154.28702 154.28702   0.00000   0.00000   0.00000   0.00000   3.09260  -0.40992  57.03601
     180 2002 12 21  0 11 17 444  3.7760    163.70782   1443.23767   1061.14161    -89.79528     50.84716      1.85229    177.8    149.5      6.5     -4.8    524.4     75.5    154.3    154.3 154.28702 154.28702   0.00000   0.00000   0.00000   0.00000   3.09233  -0.40992  56.99415
     181 2002 12 21  0 11 21 219  3.7753    163.74190   1443.71528   1061.39936    -86.51014     50.47333      1.85108    177.8    149.5      6.5     -4.9    524.7     75.7    154.3    154.3 154.28702 154.28702   0.00000   0.00000   0.00000   0.00000   3.09205  -0.40992  57.00255
     182 2002 12 21  0 11 24 994  3.7746    163.77594   1444.19607   1061.66611    -82.96044     50.11940      1.85782    177.8    149.5      6.5     -4.9    525.0     75.8    154.3    154.3 154.28702 154.28702   0.00000   0.00000   0.00000   0.00000   3.09178  -0.40992  56.96201
     183 2002 12 21  0 11 28 768  3.7740    163.80991   1444.67980   1061.94076    -79.20269     49.78341      1.87220    177.8    149.5      6.6     -5.0    525.3     76.0    154.3    154.3 154.28702 154.28702   0.00000   0.00000   0.00000   0.00000   3.09150  -0.40992  56.97069
     184 2002 12 21  0 11 32 541  3.7732    163.84382   1445.16617   1062.22231    -75.29246     49.46333      1.89387    177.8    149.5      6.6     -5.1    525.6     76.2    154.3    154.3 154.28702 154.28702   0.00000   0.00000   0.00000   0.00000   3.09123  -0.40992  56.92947
     185 2002 12 21  0 11 36 314  3.7725    163.87768   1445.65492   1062.50967    -71.28348     49.15724      1.92246    177.8    149.5      6.6     -5.2    525.8     76.3    154.3    154.3 154.28702 154.28702   0.00000   0.00000   0.00000   0.00000   3.09096  -0.40992  56.93822
     186 2002 12 21  0 11 40  85  3.7718    163.91150   1446.14584   1062.80191    -67.22736     48.86327      1.95780    177.8    149.5      6.6     -5.3    526.1     76.5    154.3    154.3 154.28702 154.28702   0.00000   0.00000   0.00000   0.00000   3.09068  -0.40992  56.89779
     187 2002 12 21  0 11 43 857  3.7711    163.94532   1446.63876   1063.09800    -63.17152     48.57968      1.99980    177.8    149.5      6.6     -5.4    526.4     76.6    154.3    154.3 154.28702 154.28702   0.00000   0.00000   0.00000   0.00000   3.09041  -0.40992  56.90672
     188 2002 12 21  0 11 47 627  3.7704    163.97914   1447.13359   1063.39710    -59.15939     48.30486      2.04772    177.8    149.5      6.6     -5.5    526.7     76.8    154.3    154.3 154.28702 154.28702   0.00000   0.00000   0.00000   0.00000   3.09013  -0.40992  56.86579
     189 2002 12 21  0 11 51 397  3.7697    164.01296   1447.63028   1063.69828    -55.23050     48.03734      2.10140    177.8    149.5      6.6     -5.6    527.0     76.9    154.3    154.3 154.28702 154.28702   0.00000   0.00000   0.00000   0.00000   3.08986  -0.40992  56.87478
     190 2002 12 21  0 11 55 166  3.7691    164.04681   1448.12886   1064.00083    -51.42042     47.77578      2.16047    177.8    149.5      6.6     -5.6    527.3     77.1    154.3    154.3 154.28702 154.28702   0.00000   0.00000   0.00000   0.00000   3.08958  -0.40992  56.83455
     191 2002 12 21  0 11 58 934  3.7684    164.08070   1448.62939   1064.30397    -47.76029     47.51916      2.22466    177.8    149.5      6.7     -5.7    527.6     77.2    154.3    154.3 154.28702 154.28702   0.00000   0.00000   0.00000   0.00000   3.08931  -0.40992  56.84371
     192 2002 12 21  0 12  2 702  3.7677    164.11463   1449.13202   1064.60712    -44.27651     47.26659      2.29351    177.8    149.5      6.6     -5.8    527.7     77.3    154.3    154.3 154.28702 154.28702   0.00000   0.00000   0.00000   0.00000   3.08904  -0.40992  56.80299
     193 2002 12 21  0 12  6 469  3.7671    164.14858   1449.63792   1064.91171    -40.99053     47.01735      2.36695    177.8    149.5      6.6     -5.9    527.7     77.4    160.1    160.1 160.14833 160.14833   0.00000   0.00000   0.00000   0.00000   3.08876  -0.40992  56.81234
     194 2002 12 21  0 12 10 201  3.7324    164.18230   1450.14092   1065.21274    -37.92001     46.76466      2.43749    177.8    149.5      6.6     -5.9    527.7     77.5    160.1    160.1 160.14833 160.14833   0.00000   0.00000   0.00000   0.00000   3.08849  -0.40992  56.77263
     195 2002 12 21  0 12 13 933  3.7319    164.21596   1450.64657   1065.51301    -35.09478     46.51933      2.51819    177.8    149.5      6.6     -6.0    527.7     77.6    160.1    160.1 160.14833 160.14833   0.00000   0.00000   0.00000   0.00000   3.08822  -0.40992  56.78179
     196 2002 12 21  0 12 17 665  3.7318    164.24958   1451.15568   1065.81187    -34.54481     46.27762      2.60244    177.8    149.5      6.6     -6.1    527.7     77.6    160.1    160.1 160.14833 160.14833   0.00000   0.00000   0.00000   0.00000   3.08795  -0.40992  56.74299
     197 2002 12 21  0 12 21 396  3.7310    164.28318   1451.66826   1066.10891    -34.31520     46.03907      2.68973    177.8    149.5      6.6     -6.1    527.7     77.7    160.1    160.1 160.14833 160.14833   0.00000   0.00000   0.00000   0.00000   3.08768  -0.40992  56.75224
     198 2002 12 21  0 12 25 126  3.7303    164.31679   1452.18465   1066.40398    -33.73979     45.80385      2.77973    177.8    149.5      6.5     -6.2    527.7     77.8    160.1    160.1 160.14833 160.14833   0.00000   0.00000   0.00000   0.00000   3.08741  -0.40992  56.71331
     199 2002 12 21  0 12 28 856  3.7296    164.35044   1452.70519   1066.69694    -32.95337     45.57228      2.87210    177.8    149.5      6.5     -6.2    527.7     77.9    160.1    160.1 160.14833 160.14833   0.00000   0.00000   0.00000   0.00000   3.08713  -0.40992  56.72261
     200 2002 12 21  0 12 32 585  3.7290    164.38413   1453.23051   1066.98779    -31.81466     45.34489      2.96657    177.8    149.5      6.5     -6.3    527.7     77.9    160.1    160.1 160.14833 160.14833   0.00000   0.00000   0.00000   0.00000   3.08686  -0.40992  56.68359
     201 2002 12 21  0 12 36 313  3.7284    164.41785   1453.76053   1067.27653    -31.41215     45.12236      3.06273    177.8    149.5      6.5     -6.4    527.7     78.0    160.1    160.1 160.14833 160.14833   0.00000   0.00000   0.00000   0.00000   3.08659  -0.40992  56.69295
     202 2002 12 21  0 12 40  41  3.7278    164.45161   1454.29598   1067.56328    -31.01868     44.90550      3.16017    177.8    149.5      6.5     -6.4    527.7     78.1    160.1    160.1 160.14833 160.14833   0.00000   0.00000   0.00000   0.00000   3.08632  -0.40992  56.65436
     203 2002 12 21  0 12 43 768  3.7272    164.48540   1454.83712   1067.84813    -30.34317     44.69520      3.25871    177.8    149.5      6.4     -6.5    527.7     78.2    160.1    160.1 160.14833 160.14833   0.00000   0.00000   0.00000   0.00000   3.08605  -0.40992  56.66386
     204 2002 12 21  0 12 47 495  3.7267    164.51923   1455.38426   1068.13132    -29.35196     44.49248      3.35795    177.8    149.5      6.4     -6.6    527.7     78.2    160.1    160.1 160.14833 160.14833   0.00000   0.00000   0.00000   0.00000   3.08578  -0.40992  56.62497
     205 2002 12 21  0 12 51 221  3.7261    164.55309   1455.93768   1068.41301    -28.04657     44.29837      3.45774    177.8    149.5      6.4     -6.6    527.7     78.3    160.1    160.1 160.14833 160.14833   0.00000   0.00000   0.00000   0.00000   3.08551  -0.40992  56.63455
     206 2002 12 21  0 12 54 947  3.7255    164.58696   1456.49767   1068.69349    -27.49745     44.11399      3.55764    177.8    149.5      6.4     -6.7    527.7     78.4    160.1    160.1 160.14833 160.14833   0.00000   0.00000   0.00000   0.00000   3.08524  -0.40992  56.59624
     207 2002 12 21  0 12 58 672  3.7249    164.62083   1457.06447   1068.97300    -26.81485     43.94042      3.65744    177.8    149.5      6.4     -6.7    527.7     78.5    160.1    160.1 160.14833 160.14833   0.00000   0.00000   0.00000   0.00000   3.08497  -0.40992  56.60599
     208 2002 12 21  0 13  2 396  3.7243    164.65470   1457.63828   1069.25187    -25.87311     43.77883      3.75700    177.8    149.5      6.4     -6.8    527.6     78.6    160.1    160.1 160.14833 160.14833   0.00000   0.00000   0.00000   0.00000   3.08470  -0.40992  56.56729
     209 2002 12 21  0 13  6 120  3.7237    164.68859   1458.22013   1069.53173    -24.78243     43.63040      3.85599    177.8    149.5      6.4     -6.8    527.4     78.7    167.7    167.7 167.67326 167.67326   0.00000   0.00000   0.00000   0.00000   3.08442  -0.40992  56.57726
     210 2002 12 21  0 13  9 825  3.7051    164.72238   1458.80609   1069.81043    -24.14902     43.49193      3.95069    177.8    149.5      6.4     -6.8    527.3     78.8    167.7    167.7 167.67326 167.67326   0.00000   0.00000   0.00000   0.00000   3.08415  -0.40992  56.53935
     211 2002 12 21  0 13 13 529  3.7046    164.75618   1459.39915   1070.08977    -23.66031     43.37153      4.04777    177.8    149.5      6.4     -6.8    527.1     78.9    167.7    167.7 167.67326 167.67326   0.00000   0.00000   0.00000   0.00000   3.08389  -0.40992  56.54925
     212 2002 12 21  0 13 17 234  3.7043    164.78999   1459.99973   1070.36989    -24.08832     43.26794      4.14413    177.8    149.5      6.4     -6.8    527.0     79.0    167.7    167.7 167.67326 167.67326   0.00000   0.00000   0.00000   0.00000   3.08362  -0.40992  56.51171
     213 2002 12 21  0 13 20 937  3.7036    164.82380   1460.60768   1070.65096    -24.49390     43.18172      4.23944    177.8    149.5      6.4     -6.8    526.8     79.2    167.7    167.7 167.67326 167.67326   0.00000   0.00000   0.00000   0.00000   3.08335  -0.40992  56.52174
     214 2002 12 21  0 13 24 640  3.7030    164.85763   1461.22290   1070.93327    -24.85947     43.11362      4.33364    177.8    149.5      6.4     -6.8    526.7     79.3    167.7    167.7 167.67326 167.67326   0.00000   0.00000   0.00000   0.00000   3.08308  -0.40992  56.48449
     215 2002 12 21  0 13 28 343  3.7024    164.89147   1461.84531   1071.21703    -25.16861     43.06429      4.42677    177.8    149.5      6.4     -6.8    526.6     79.4    167.7    167.7 167.67326 167.67326   0.00000   0.00000   0.00000   0.00000   3.08281  -0.40992  56.49466
     216 2002 12 21  0 13 32  44  3.7018    164.92534   1462.47476   1071.50252    -25.40575     43.03429      4.51875    177.8    149.5      6.5     -6.8    526.4     79.5    167.7    167.7 167.67326 167.67326   0.00000   0.00000   0.00000   0.00000   3.08254  -0.40992  56.45729
     217 2002 12 21  0 13 35 746  3.7013    164.95921   1463.11105   1071.78989    -25.55540     43.02413      4.60947    177.8    149.5      6.5     -6.8    526.3     79.6    167.7    167.7 167.67326 167.67326   0.00000   0.00000   0.00000   0.00000   3.08227  -0.40992  56.46756
     218 2002 12 21  0 13 39 446  3.7007    164.99306   1463.75393   1072.07936    -25.60380     43.03414      4.69898    177.8    149.5      6.5     -6.8    526.1     79.8    167.7    167.7 167.67326 167.67326   0.00000   0.00000   0.00000   0.00000   3.08200  -0.40992  56.43069
     219 2002 12 21  0 13 43 146  3.7002    165.02689   1464.40315   1072.37103    -25.53862     43.07191      4.78720    177.8    149.5      6.5     -6.8    526.0     79.9    167.7    167.7 167.67326 167.67326   0.00000   0.00000   0.00000   0.00000   3.08173  -0.40992  56.44115
     220 2002 12 21  0 13 46 846  3.6996    165.06069   1465.05837   1072.66506    -25.34904     43.18820      4.87421    177.8    149.5      6.5     -6.8    525.8     80.0    167.7    167.7 167.67326 167.67326   0.00000   0.00000   0.00000   0.00000   3.08146  -0.40992  56.40405
     221 2002 12 21  0 13 50 545  3.6991    165.09447   1465.71925   1072.96148    -25.02619     43.32454      4.96005    177.8    149.5      6.5     -6.8    525.7     80.1    167.7    167.7 167.67326 167.67326   0.00000   0.00000   0.00000   0.00000   3.08119  -0.40992  56.41461
     222 2002 12 21  0 13 54 244  3.6986    165.12824   1466.38540   1073.26036    -24.56343     43.48090      5.04473    177.8    149.5      6.5     -6.8    525.5     80.3    167.7    167.7 167.67326 167.67326   0.00000   0.00000   0.00000   0.00000   3.08092  -0.40992  56.37809
     223 2002 12 21  0 13 57 942  3.6981    165.16198   1467.05640   1073.56166    -23.95611     43.65707      5.12817    177.8    149.5      6.5     -6.8    525.4     80.4    167.7    167.7 167.67326 167.67326   0.00000   0.00000   0.00000   0.00000   3.08066  -0.40992  56.38884
     224 2002 12 21  0 14  1 639  3.6976    165.19567   1467.73181   1073.86539    -23.20169     43.85269      5.21048    177.8    149.5      6.5     -6.8    525.3     80.5    167.7    167.7 167.67326 167.67326   0.00000   0.00000   0.00000   0.00000   3.08039  -0.40992  56.35207
     225 2002 12 21  0 14  5 337  3.6971    165.22933   1468.41196   1074.17160    -22.29972     44.06728      5.29176    177.8    149.5      6.5     -6.8    525.3     80.5    171.0    171.0 170.96752 170.96752   0.00000   0.00000   0.00000   0.00000   3.08012  -0.40992  56.36307
     226 2002 12 21  0 14  9  32  3.6956    165.26296   1469.09537   1074.47995    -21.25144     44.29981      5.37169    177.8    149.5      6.5     -6.8    525.3     80.5    171.0    171.0 170.96752 170.96752   0.00000   0.00000   0.00000   0.00000   3.07985  -0.40992  56.32688
     227 2002 12 21  0 14 12 727  3.6951    165.29659   1469.78174   1074.79038    -20.58282     44.54998      5.45073    177.8    149.5      6.5     -6.9    525.3     80.6    171.0    171.0 170.96752 170.96752   0.00000   0.00000   0.00000   0.00000   3.07958  -0.40992  56.33801
     228 2002 12 21  0 14 16 422  3.6946    165.33021   1470.47063   1075.10271    -20.58242     44.81675      5.52872    177.8    149.5      6.5     -6.9    525.2     80.6    171.0    171.0 170.96752 170.96752   0.00000   0.00000   0.00000   0.00000   3.07931  -0.40992  56.30149
     229 2002 12 21  0 14 20 116  3.6941    165.36382   1471.16155   1075.41668    -20.57647     45.09904      5.60568    177.8    149.5      6.4     -6.9    525.2     80.7    171.0    171.0 170.96752 170.96752   0.00000   0.00000   0.00000   0.00000   3.07904  -0.40992  56.31277
     230 2002 12 21  0 14 23 810  3.6937    165.39742   1471.85404   1075.73208    -20.56518     45.39570      5.68167    177.8    149.5      6.4     -6.9    525.2     80.7    171.0    171.0 170.96752 170.96752   0.00000   0.00000   0.00000   0.00000   3.07877  -0.40992  56.27704
     231 2002 12 21  0 14 27 503  3.6932    165.43100   1472.54763   1076.04859    -20.54846     45.70547      5.75665    177.8    149.5      6.4     -6.9    525.2     80.7    171.0    171.0 170.96752 170.96752   0.00000   0.00000   0.00000   0.00000   3.07851  -0.40992  56.28853
     232 2002 12 21  0 14 31 195  3.6927    165.46458   1473.24187   1076.36594    -20.52647     46.02702      5.83066    177.8    149.5      6.4     -7.0    525.2     80.8    171.0    171.0 170.96752 170.96752   0.00000   0.00000   0.00000   0.00000   3.07824  -0.40992  56.25242
     233 2002 12 21  0 14 34 888  3.6922    165.49815   1473.93675   1076.68377    -20.49956     46.35895      5.90373    177.8    149.5      6.4     -7.0    525.2     80.8    171.0    171.0 170.96752 170.96752   0.00000   0.00000   0.00000   0.00000   3.07797  -0.40992  56.26399
     234 2002 12 21  0 14 38 579  3.6917    165.53169   1474.63141   1077.00178    -20.46813     47.20054      5.97571    177.8    149.5      6.4     -7.0    525.1     80.8    171.0    171.0 170.96752 170.96752   0.00000   0.00000   0.00000   0.00000   3.07770  -0.40992  56.22858
     235 2002 12 21  0 14 42 271  3.6912    165.56521   1475.32540   1077.31956    -20.43268     48.10189      6.04664    177.8    149.5      6.4     -7.0    525.1     80.9    171.0    171.0 170.96752 170.96752   0.00000   0.00000   0.00000   0.00000   3.07743  -0.40992  56.24035
     236 2002 12 21  0 14 45 961  3.6907    165.59869   1476.01834   1077.63680    -20.39341     48.98832      6.11651    177.8    149.5      6.3     -7.0    525.1     80.9    171.0    171.0 170.96752 170.96752   0.00000   0.00000   0.00000   0.00000   3.07716  -0.40992  56.20456
     237 2002 12 21  0 14 49 651  3.6902    165.63217   1476.70982   1077.95309    -20.35078     49.85781      6.18531    177.8    149.5      6.3     -7.0    525.1     81.0    171.0    171.0 170.96752 170.96752   0.00000   0.00000   0.00000   0.00000   3.07690  -0.40992  56.21640
     238 2002 12 21  0 14 53 341  3.6897    165.66564   1477.39949   1078.26808    -20.30555     50.70861      6.25296    177.8    149.5      6.3     -7.1    525.1     81.0    171.0    171.0 170.96752 170.96752   0.00000   0.00000   0.00000   0.00000   3.07663  -0.40992  56.18131
     239 2002 12 21  0 14 57  30  3.6891    165.69913   1478.08702   1078.58139    -20.25839     51.53933      6.31935    177.8    149.5      6.3     -7.1    525.0     81.0    171.0    171.0 170.96752 170.96752   0.00000   0.00000   0.00000   0.00000   3.07636  -0.40992  56.19334
     240 2002 12 21  0 15  0   0  2.9693    165.72748   1478.63720   1078.81999    -16.13373     52.07954      6.21972    177.8    149.5      6.3     -7.1    525.0     81.1    171.0    171.0 170.96752 170.96752   0.00000   0.00000   0.00000   0.00000   3.07614  -0.40992  56.16411
