GITM2 log file
## Inputs from UAM.in
# Resart= F
# Eddy coef:    50.000 Eddy P0:     0.010 Eddy P1:     0.005
# Statistical Models Only:  F Apex:  F
# EUV Data:  TFile: 
UA/DataIn/FISM/fismflux_daily_2002.dat                                                                                                                                                                                                                                                                                                                                                                                                                                                                                                                                                                                  
# E-Field Model: weimer05 Auroral Model: FTA
# AMIE: none           
none                                                                                                                                                                                                                                                                                                                                                                                                                                                                                                                                                                                                                    
# Solar Heating:  T Joule Heating:  T
# NO Cooling:  T O Cooling:  T
# Conduction:  T Turbulent Conduction:  T
# Pressure Grad:  T Ion Drag:  T Neutral Drag:  T
# Viscosity:  T Coriolis:  T Gravity:  T
# Ion Chemistry:  T Ion Advection:  T Neutral Chemistry:  T
 
#START
   iStep yyyy mm dd hh mm ss  ms      dt min(T) max(T) mean(T) min(VV) max(VV) mean(VV) F107 F107A By Bz Vx HP HPn HPs HPn_diff HPs_diff HPn_w HPs_w HPn_m HPs_m SubsolarLon SubsolarLat SubsolarVTEC
       2 2002 12 21  0  0  4 105  4.1058    157.74815   1316.94289   1012.01852     -3.86973      4.80289      0.02868    177.9    149.5      6.1     -6.0    531.2     71.9    146.3    146.3 146.25404 146.25404   0.00000   0.00000   0.00000   0.00000   3.14129  -0.40992  58.07354
       3 2002 12 21  0  0  8  39  3.9333    157.86758   1316.75126   1012.14763     -5.47890      3.73507     -0.31689    177.9    149.5      6.2     -6.0    531.0     72.0    146.3    146.3 146.25404 146.25404   0.00000   0.00000   0.00000   0.00000   3.14101  -0.40992  57.96171
       4 2002 12 21  0  0 11 927  3.8882    157.90472   1316.56583   1012.28863     -6.33135      3.28832     -0.56606    177.9    149.5      6.2     -6.0    530.7     72.0    146.3    146.3 146.25404 146.25404   0.00000   0.00000   0.00000   0.00000   3.14073  -0.40992  57.89588
       5 2002 12 21  0  0 15 899  3.9717    157.88554   1316.37279   1012.44050     -6.83937      3.18214     -0.77111    177.9    149.5      6.2     -6.0    530.5     72.0    146.3    146.3 146.25404 146.25404   0.00000   0.00000   0.00000   0.00000   3.14044  -0.40992  57.85516
       6 2002 12 21  0  0 19 881  3.9828    157.87083   1316.19135   1012.59805     -7.18281      3.10152     -0.96211    177.9    149.5      6.3     -6.0    530.2     72.1    146.3    146.3 146.25404 146.25404   0.00000   0.00000   0.00000   0.00000   3.14015  -0.40992  57.80196
       7 2002 12 21  0  0 23 873  3.9918    157.87079   1316.02146   1012.76019     -7.46037      3.01991     -1.14249    177.9    149.5      6.3     -6.0    530.0     72.1    146.3    146.3 146.25404 146.25404   0.00000   0.00000   0.00000   0.00000   3.13986  -0.40992  57.76663
       8 2002 12 21  0  0 27 875  4.0023    157.88832   1315.86511   1012.92608     -7.70818      2.93386     -1.31737    177.9    149.5      6.4     -6.0    529.7     72.2    146.3    146.3 146.25404 146.25404   0.00000   0.00000   0.00000   0.00000   3.13957  -0.40992  57.71151
       9 2002 12 21  0  0 31 890  4.0143    157.90146   1315.72633   1013.09503     -7.94276      2.84974     -1.48695    177.9    149.5      6.4     -6.0    529.5     72.2    146.3    146.3 146.25404 146.25404   0.00000   0.00000   0.00000   0.00000   3.13927  -0.40992  57.67664
      10 2002 12 21  0  0 35 908  4.0184    157.90466   1315.60280   1013.26617     -8.16785      2.75491     -1.65284    177.9    149.5      6.4     -6.0    529.2     72.3    146.3    146.3 146.25404 146.25404   0.00000   0.00000   0.00000   0.00000   3.13898  -0.40992  57.61810
      11 2002 12 21  0  0 39 924  4.0158    157.90620   1315.49303   1013.43867     -8.38593      2.64440     -1.81543    177.9    149.5      6.5     -6.0    528.9     72.3    146.3    146.3 146.25404 146.25404   0.00000   0.00000   0.00000   0.00000   3.13869  -0.40992  57.58375
      12 2002 12 21  0  0 43 939  4.0148    157.91098   1315.39520   1013.61230     -8.59765      2.52919     -1.97301    177.9    149.5      6.5     -6.0    528.7     72.4    146.3    146.3 146.25404 146.25404   0.00000   0.00000   0.00000   0.00000   3.13840  -0.40992  57.52485
      13 2002 12 21  0  0 47 954  4.0152    157.91793   1315.30819   1013.78663     -8.80339      2.40888     -2.12761    177.9    149.5      6.5     -6.0    528.4     72.4    146.3    146.3 146.25404 146.25404   0.00000   0.00000   0.00000   0.00000   3.13811  -0.40992  57.49107
      14 2002 12 21  0  0 51 970  4.0161    157.92638   1315.23066   1013.96147     -9.39816      2.28223     -2.27961    177.9    149.5      6.6     -6.0    528.2     72.5    146.3    146.3 146.25404 146.25404   0.00000   0.00000   0.00000   0.00000   3.13781  -0.40992  57.43174
      15 2002 12 21  0  0 55 987  4.0175    157.93502   1315.16148   1014.13646    -10.07987      2.27238     -2.42873    177.9    149.5      6.6     -6.0    527.9     72.5    146.3    146.3 146.25404 146.25404   0.00000   0.00000   0.00000   0.00000   3.13752  -0.40992  57.39874
      16 2002 12 21  0  1  0   6  4.0186    157.94248   1315.38323   1014.31143    -10.67948      2.42259     -2.57535    177.9    149.5      6.6     -6.0    527.7     72.6    146.3    146.3 146.25404 146.25404   0.00000   0.00000   0.00000   0.00000   3.13723  -0.40992  57.34006
      17 2002 12 21  0  1  4  25  4.0186    157.94691   1315.91282   1014.48613    -11.68330      2.63522     -2.71914    177.9    149.5      6.6     -6.0    527.8     72.5    149.2    149.2 149.21843 149.21843   0.00000   0.00000   0.00000   0.00000   3.13694  -0.40992  57.30779
      18 2002 12 21  0  1  8  33  4.0085    157.94958   1316.42374   1014.65995    -12.34428      2.85202     -2.86069    177.9    149.5      6.6     -6.0    527.9     72.5    149.2    149.2 149.21843 149.21843   0.00000   0.00000   0.00000   0.00000   3.13665  -0.40992  57.24830
      19 2002 12 21  0  1 12  36  4.0027    157.95246   1316.91868   1014.83281    -13.38342      3.25677     -2.99887    177.9    149.5      6.6     -6.0    528.0     72.4    149.2    149.2 149.21843 149.21843   0.00000   0.00000   0.00000   0.00000   3.13635  -0.40992  57.21745
      20 2002 12 21  0  1 16  33  3.9970    157.95542   1317.39835   1015.00462    -13.90976      3.52521     -3.13377    177.9    149.5      6.6     -6.0    528.2     72.4    149.2    149.2 149.21843 149.21843   0.00000   0.00000   0.00000   0.00000   3.13606  -0.40992  57.15896
      21 2002 12 21  0  1 20  24  3.9914    157.95736   1317.86363   1015.17516    -15.05373      3.99534     -3.26517    177.9    149.5      6.6     -6.1    528.3     72.4    149.2    149.2 149.21843 149.21843   0.00000   0.00000   0.00000   0.00000   3.13577  -0.40992  57.12939
      22 2002 12 21  0  1 24   9  3.9851    157.95789   1318.31532   1015.34438    -15.55356      4.24526     -3.39301    177.9    149.5      6.6     -6.1    528.4     72.3    149.2    149.2 149.21843 149.21843   0.00000   0.00000   0.00000   0.00000   3.13548  -0.40992  57.06976
      23 2002 12 21  0  1 27 988  3.9790    157.95723   1318.75420   1015.51206    -16.59747      4.68060     -3.51696    177.9    149.5      6.5     -6.1    528.5     72.3    149.2    149.2 149.21843 149.21843   0.00000   0.00000   0.00000   0.00000   3.13519  -0.40992  57.04163
      24 2002 12 21  0  1 31 962  3.9734    157.95555   1319.18114   1015.67824    -17.33603      5.05255     -3.63687    177.9    149.5      6.5     -6.1    528.6     72.2    149.2    149.2 149.21843 149.21843   0.00000   0.00000   0.00000   0.00000   3.13490  -0.40992  56.98237
      25 2002 12 21  0  1 35 930  3.9683    157.95297   1319.60084   1015.84274    -17.97813      5.17270     -3.75260    177.9    149.5      6.5     -6.1    528.8     72.2    149.2    149.2 149.21843 149.21843   0.00000   0.00000   0.00000   0.00000   3.13462  -0.40992  56.95590
      26 2002 12 21  0  1 39 894  3.9635    157.94943   1320.01415   1016.00558    -19.08830      5.66053     -3.86404    177.9    149.5      6.5     -6.1    528.9     72.1    149.2    149.2 149.21843 149.21843   0.00000   0.00000   0.00000   0.00000   3.13433  -0.40992  56.89505
      27 2002 12 21  0  1 43 853  3.9592    157.94478   1320.42010   1016.16661    -19.35209      5.93429     -3.97098    177.9    149.5      6.5     -6.1    529.0     72.1    149.2    149.2 149.21843 149.21843   0.00000   0.00000   0.00000   0.00000   3.13404  -0.40992  56.87013
      28 2002 12 21  0  1 47 808  3.9554    157.93919   1320.81920   1016.32586    -20.70886      6.13551     -4.07295    177.9    149.5      6.5     -6.1    529.1     72.0    149.2    149.2 149.21843 149.21843   0.00000   0.00000   0.00000   0.00000   3.13375  -0.40992  56.80961
      29 2002 12 21  0  1 51 760  3.9520    157.93287   1321.21182   1016.48321    -21.57409      6.58303     -4.16956    177.9    149.5      6.5     -6.1    529.2     72.0    149.2    149.2 149.21843 149.21843   0.00000   0.00000   0.00000   0.00000   3.13347  -0.40992  56.78623
      30 2002 12 21  0  1 55 709  3.9492    157.92581   1321.59802   1016.63869    -21.82802      6.75978     -4.26062    177.9    149.5      6.5     -6.1    529.4     72.0    149.2    149.2 149.21843 149.21843   0.00000   0.00000   0.00000   0.00000   3.13318  -0.40992  56.72498
      31 2002 12 21  0  1 59 656  3.9469    157.91798   1321.97698   1016.79217    -23.39165      7.07300     -4.34607    177.9    149.5      6.4     -6.1    529.5     71.9    149.2    149.2 149.21843 149.21843   0.00000   0.00000   0.00000   0.00000   3.13289  -0.40992  56.70294
      32 2002 12 21  0  2  3 601  3.9450    157.90809   1322.34992   1016.94370    -24.15854      7.49633     -4.42567    177.9    149.5      6.4     -6.1    529.5     72.0    149.2    149.2 149.21843 149.21843   0.00000   0.00000   0.00000   0.00000   3.13260  -0.40992  56.64271
      33 2002 12 21  0  2  7 545  3.9434    157.89356   1322.71716   1017.09329    -24.39064      7.66825     -4.49915    177.9    149.5      6.4     -6.2    529.5     72.1    148.2    148.2 148.17492 148.17492   0.00000   0.00000   0.00000   0.00000   3.13232  -0.40992  56.62153
      34 2002 12 21  0  2 11 485  3.9403    157.87956   1323.07865   1017.24084    -26.07338      8.16635     -4.56642    177.9    149.5      6.4     -6.2    529.6     72.2    148.2    148.2 148.17492 148.17492   0.00000   0.00000   0.00000   0.00000   3.13203  -0.40992  56.56129
      35 2002 12 21  0  2 15 424  3.9394    157.86660   1323.43488   1017.38628    -26.91516      8.72653     -4.62700    177.9    149.5      6.4     -6.2    529.6     72.3    148.2    148.2 148.17492 148.17492   0.00000   0.00000   0.00000   0.00000   3.13174  -0.40992  56.54156
      36 2002 12 21  0  2 19 363  3.9390    157.85493   1323.78602   1017.52968    -26.61906      9.32122     -4.68094    177.9    149.5      6.4     -6.2    529.6     72.4    148.2    148.2 148.17492 148.17492   0.00000   0.00000   0.00000   0.00000   3.13146  -0.40992  56.48257
      37 2002 12 21  0  2 23 302  3.9388    157.84455   1324.13382   1017.67093    -28.51502      9.92278     -4.72830    177.9    149.5      6.4     -6.2    529.7     72.6    148.2    148.2 148.17492 148.17492   0.00000   0.00000   0.00000   0.00000   3.13117  -0.40992  56.46370
      38 2002 12 21  0  2 27 241  3.9391    157.83541   1324.87176   1017.81010    -29.66153     10.52952     -4.76907    177.9    149.5      6.3     -6.2    529.7     72.7    148.2    148.2 148.17492 148.17492   0.00000   0.00000   0.00000   0.00000   3.13088  -0.40992  56.40410
      39 2002 12 21  0  2 31 181  3.9397    157.82762   1325.60152   1017.94713    -29.62718     11.13970     -4.80322    177.9    149.5      6.3     -6.2    529.7     72.8    148.2    148.2 148.17492 148.17492   0.00000   0.00000   0.00000   0.00000   3.13060  -0.40992  56.38601
      40 2002 12 21  0  2 35 122  3.9406    157.82132   1326.32304   1018.08210    -30.44519     11.75199     -4.83081    177.9    149.5      6.3     -6.3    529.8     72.9    148.2    148.2 148.17492 148.17492   0.00000   0.00000   0.00000   0.00000   3.13031  -0.40992  56.32752
      41 2002 12 21  0  2 39  63  3.9418    157.81662   1327.03621   1018.21493    -32.02589     12.36463     -4.85196    177.9    149.5      6.3     -6.3    529.8     73.0    148.2    148.2 148.17492 148.17492   0.00000   0.00000   0.00000   0.00000   3.13003  -0.40992  56.31031
      42 2002 12 21  0  2 43   7  3.9431    157.81352   1327.74101   1018.34575    -32.54080     12.97542     -4.86671    177.9    149.5      6.3     -6.3    529.8     73.1    148.2    148.2 148.17492 148.17492   0.00000   0.00000   0.00000   0.00000   3.12974  -0.40992  56.25121
      43 2002 12 21  0  2 46 951  3.9445    157.81128   1328.43783   1018.47447    -31.86337     13.58271     -4.87503    177.9    149.5      6.3     -6.3    529.8     73.2    148.2    148.2 148.17492 148.17492   0.00000   0.00000   0.00000   0.00000   3.12945  -0.40992  56.23476
      44 2002 12 21  0  2 50 897  3.9461    157.81007   1329.12596   1018.60123    -33.84488     14.18552     -4.87686    177.9    149.5      6.3     -6.3    529.9     73.3    148.2    148.2 148.17492 148.17492   0.00000   0.00000   0.00000   0.00000   3.12916  -0.40992  56.17670
      45 2002 12 21  0  2 54 845  3.9478    157.81045   1329.80527   1018.72597    -35.04319     14.78089     -4.87206    177.9    149.5      6.2     -6.3    529.9     73.4    148.2    148.2 148.17492 148.17492   0.00000   0.00000   0.00000   0.00000   3.12888  -0.40992  56.16111
      46 2002 12 21  0  2 58 795  3.9496    157.81257   1330.47569   1018.84884    -34.93054     15.36696     -4.86037    177.9    149.5      6.2     -6.4    529.9     73.5    148.2    148.2 148.17492 148.17492   0.00000   0.00000   0.00000   0.00000   3.12859  -0.40992  56.10245
      47 2002 12 21  0  3  2 746  3.9515    157.81021   1331.13707   1018.96981    -35.06028     15.94201     -4.84123    177.9    149.5      6.2     -6.3    530.0     73.7    148.2    148.2 148.17492 148.17492   0.00000   0.00000   0.00000   0.00000   3.12830  -0.40992  56.08757
      48 2002 12 21  0  3  6 700  3.9534    157.80728   1331.79386   1019.08924    -36.93826     16.50494     -4.81432    177.9    149.5      6.2     -6.3    530.1     73.9    152.5    152.5 152.46371 152.46371   0.00000   0.00000   0.00000   0.00000   3.12802  -0.40992  56.02963
      49 2002 12 21  0  3 10 652  3.9524    157.80498   1332.44188   1019.20691    -37.84682     17.05533     -4.77927    177.9    149.5      6.3     -6.3    530.2     74.1    152.5    152.5 152.46371 152.46371   0.00000   0.00000   0.00000   0.00000   3.12773  -0.40992  56.01555
      50 2002 12 21  0  3 14 606  3.9544    157.80353   1333.08119   1019.32303    -37.34475     17.59084     -4.73447    177.9    149.5      6.3     -6.3    530.3     74.3    152.5    152.5 152.46371 152.46371   0.00000   0.00000   0.00000   0.00000   3.12744  -0.40992  55.95781
      51 2002 12 21  0  3 18 563  3.9564    157.80250   1333.71176   1019.43760    -38.04000     18.10974     -4.67929    177.9    149.5      6.3     -6.3    530.4     74.6    152.5    152.5 152.46371 152.46371   0.00000   0.00000   0.00000   0.00000   3.12715  -0.40992  55.94432
      52 2002 12 21  0  3 22 521  3.9584    157.80160   1334.33366   1019.55081    -39.70395     18.61059     -4.61281    177.9    149.5      6.3     -6.2    530.5     74.8    152.5    152.5 152.46371 152.46371   0.00000   0.00000   0.00000   0.00000   3.12686  -0.40992  55.88706
      53 2002 12 21  0  3 26 482  3.9604    157.80045   1334.94718   1019.66271    -40.27146     19.92237     -4.53387    177.9    149.5      6.3     -6.2    530.6     75.0    152.5    152.5 152.46371 152.46371   0.00000   0.00000   0.00000   0.00000   3.12658  -0.40992  55.87431
      54 2002 12 21  0  3 30 444  3.9623    157.79969   1335.55243   1019.77351    -39.34824     21.02981     -4.44129    177.9    149.5      6.3     -6.2    530.7     75.2    152.5    152.5 152.46371 152.46371   0.00000   0.00000   0.00000   0.00000   3.12629  -0.40992  55.81651
      55 2002 12 21  0  3 34 408  3.9641    157.80019   1336.14965   1019.88329    -40.24066     21.76067     -4.33396    177.9    149.5      6.3     -6.2    530.8     75.4    152.5    152.5 152.46371 152.46371   0.00000   0.00000   0.00000   0.00000   3.12600  -0.40992  55.80431
      56 2002 12 21  0  3 38 374  3.9658    157.80116   1336.73909   1019.99227    -41.65065     23.35622     -4.21085    177.9    149.5      6.3     -6.2    530.9     75.6    152.5    152.5 152.46371 152.46371   0.00000   0.00000   0.00000   0.00000   3.12571  -0.40992  55.74740
      57 2002 12 21  0  3 42 341  3.9674    157.80168   1337.32122   1020.10056    -41.92235     24.93836     -4.07104    177.9    149.5      6.3     -6.1    531.0     75.8    152.5    152.5 152.46371 152.46371   0.00000   0.00000   0.00000   0.00000   3.12542  -0.40992  55.73588
      58 2002 12 21  0  3 46 310  3.9689    157.80213   1337.89642   1020.20841    -40.67955     25.92083     -3.91376    177.9    149.5      6.4     -6.1    531.0     76.0    152.5    152.5 152.46371 152.46371   0.00000   0.00000   0.00000   0.00000   3.12513  -0.40992  55.67872
      59 2002 12 21  0  3 50 280  3.9702    157.80288   1338.46536   1020.31592    -41.60401     26.44890     -3.73843    177.9    149.5      6.4     -6.1    531.1     76.2    152.5    152.5 152.46371 152.46371   0.00000   0.00000   0.00000   0.00000   3.12485  -0.40992  55.66780
      60 2002 12 21  0  3 54 252  3.9714    157.80396   1339.02868   1020.42338    -42.67740     28.47661     -3.54473    177.9    149.5      6.4     -6.1    531.2     76.4    152.5    152.5 152.46371 152.46371   0.00000   0.00000   0.00000   0.00000   3.12456  -0.40992  55.61085
      61 2002 12 21  0  3 58 224  3.9724    157.80511   1339.58711   1020.53089    -42.67723     30.11610     -3.33267    177.9    149.5      6.4     -6.0    531.3     76.6    152.5    152.5 152.46371 152.46371   0.00000   0.00000   0.00000   0.00000   3.12427  -0.40992  55.60046
      62 2002 12 21  0  4  2 197  3.9733    157.80615   1340.14139   1020.63872    -41.17936     31.03367     -3.10250    177.9    149.5      6.4     -6.1    531.5     76.8    152.5    152.5 152.46371 152.46371   0.00000   0.00000   0.00000   0.00000   3.12398  -0.40992  55.54395
      63 2002 12 21  0  4  6 171  3.9740    157.80699   1340.68590   1020.74657    -42.12163     31.38880     -2.85472    177.9    149.5      6.3     -6.1    531.6     76.8    163.4    163.4 163.37529 163.37529   0.00000   0.00000   0.00000   0.00000   3.12369  -0.40992  55.53427
      64 2002 12 21  0  4 10 150  3.9790    157.80766   1341.22721   1020.85508    -42.74599     33.56627     -2.58925    177.9    149.5      6.2     -6.1    531.8     76.8    163.4    163.4 163.37529 163.37529   0.00000   0.00000   0.00000   0.00000   3.12340  -0.40992  55.47789
      65 2002 12 21  0  4 14 130  3.9796    157.80822   1341.76615   1020.96433    -42.43919     35.34848     -2.30863    177.9    149.5      6.2     -6.1    531.9     76.9    163.4    163.4 163.37529 163.37529   0.00000   0.00000   0.00000   0.00000   3.12311  -0.40992  55.46872
      66 2002 12 21  0  4 18 110  3.9799    157.80863   1342.30361   1021.07460    -40.77237     36.32593     -2.01367    177.9    149.5      6.1     -6.2    532.1     76.9    163.4    163.4 163.37529 163.37529   0.00000   0.00000   0.00000   0.00000   3.12282  -0.40992  55.41007
      67 2002 12 21  0  4 22  90  3.9801    157.80883   1342.84051   1021.18597    -41.78227     36.59625     -1.70580    177.9    149.5      6.1     -6.2    532.2     76.9    163.4    163.4 163.37529 163.37529   0.00000   0.00000   0.00000   0.00000   3.12253  -0.40992  55.40143
      68 2002 12 21  0  4 26  70  3.9801    157.80874   1343.37756   1021.29869    -42.02144     38.45082     -1.38668    177.9    149.5      6.0     -6.2    532.4     77.0    163.4    163.4 163.37529 163.37529   0.00000   0.00000   0.00000   0.00000   3.12224  -0.40992  55.34594
      69 2002 12 21  0  4 30  50  3.9800    157.80838   1343.91534   1021.41281    -41.13935     40.47414     -1.05812    177.9    149.5      5.9     -6.2    532.5     77.0    163.4    163.4 163.37529 163.37529   0.00000   0.00000   0.00000   0.00000   3.12195  -0.40992  55.33816
      70 2002 12 21  0  4 34  29  3.9795    157.80772   1344.45426   1021.52853    -39.99323     41.64778     -0.72203    177.9    149.5      5.9     -6.3    532.7     77.1    163.4    163.4 163.37529 163.37529   0.00000   0.00000   0.00000   0.00000   3.12166  -0.40992  55.28033
      71 2002 12 21  0  4 38   8  3.9782    157.80678   1344.99445   1021.64586    -40.56886     41.96923     -0.38041    177.9    149.5      5.8     -6.3    532.8     77.1    163.4    163.4 163.37529 163.37529   0.00000   0.00000   0.00000   0.00000   3.12138  -0.40992  55.27275
      72 2002 12 21  0  4 41 985  3.9770    157.80552   1345.53575   1021.76495    -40.37352     43.06386     -0.03493    177.9    149.5      5.8     -6.3    533.0     77.1    163.4    163.4 163.37529 163.37529   0.00000   0.00000   0.00000   0.00000   3.12109  -0.40992  55.21758
      73 2002 12 21  0  4 45 961  3.9758    157.80394   1346.07797   1021.88583    -39.07878     45.26473      0.31257    177.9    149.5      5.7     -6.3    533.2     77.2    163.4    163.4 163.37529 163.37529   0.00000   0.00000   0.00000   0.00000   3.12080  -0.40992  55.21072
      74 2002 12 21  0  4 49 935  3.9746    157.80204   1346.62062   1022.00862    -38.44057     46.78978      0.66044    177.9    149.5      5.7     -6.4    533.3     77.2    163.4    163.4 163.37529 163.37529   0.00000   0.00000   0.00000   0.00000   3.12051  -0.40992  55.15312
      75 2002 12 21  0  4 53 908  3.9733    157.79984   1347.16287   1022.13331    -38.54050     47.36859      1.00717    177.9    149.5      5.6     -6.4    533.5     77.2    163.4    163.4 163.37529 163.37529   0.00000   0.00000   0.00000   0.00000   3.12022  -0.40992  55.14631
      76 2002 12 21  0  4 57 881  3.9721    157.79734   1347.70340   1022.26005    -37.88427     48.10997      1.35140    177.9    149.5      5.5     -6.4    533.6     77.3    163.4    163.4 163.37529 163.37529   0.00000   0.00000   0.00000   0.00000   3.11993  -0.40992  55.09174
      77 2002 12 21  0  5  0   0  2.1189    157.79904   1348.00979   1022.32669    -37.96233     48.81543      1.44194    177.9    149.5      5.5     -6.4    533.7     77.3    163.4    163.4 163.37529 163.37529   0.00000   0.00000   0.00000   0.00000   3.11978  -0.40992  55.08934
