GITM2 log file
## Inputs from UAM.in
# Resart= F
# Eddy coef:    50.000 Eddy P0:     0.010 Eddy P1:     0.005
# Statistical Models Only:  F Apex:  F
# EUV Data:  TFile: 
UA/DataIn/FISM/fismflux_daily_2002.dat                                                                                                                                                                                                                                                                                                                                                                                                                                                                                                                                                                                  
# E-Field Model: weimer05 Auroral Model: FTA
# AMIE: none           
none                                                                                                                                                                                                                                                                                                                                                                                                                                                                                                                                                                                                                    
# Solar Heating:  T Joule Heating:  T
# NO Cooling:  T O Cooling:  T
# Conduction:  T Turbulent Conduction:  T
# Pressure Grad:  T Ion Drag:  T Neutral Drag:  T
# Viscosity:  T Coriolis:  T Gravity:  T
# Ion Chemistry:  T Ion Advection:  T Neutral Chemistry:  T
 
#START
   iStep yyyy mm dd hh mm ss  ms      dt min(T) max(T) mean(T) min(VV) max(VV) mean(VV) F107 F107A By Bz Vx HP HPn HPs HPn_diff HPs_diff HPn_w HPs_w HPn_m HPs_m SubsolarLon SubsolarLat SubsolarVTEC
       2 2002 12 21  0  0  4 105  4.1058    157.62863   1317.06364   1012.07579     -4.35960      5.73684      0.15888    177.9    149.5      6.1     -6.0    531.2     71.9    146.3    146.3 146.25404 146.25404   0.00000   0.00000   0.00000   0.00000   3.14129  -0.40992  58.75926
       3 2002 12 21  0  0  8  37  3.9320    157.58317   1316.99380   1012.25985     -8.35853      6.39484     -0.12503    177.9    149.5      6.2     -6.0    531.0     72.0    146.3    146.3 146.25404 146.25404   0.00000   0.00000   0.00000   0.00000   3.14101  -0.40992  60.82292
       4 2002 12 21  0  0 11 887  3.8494    157.60674   1316.93655   1012.45450     -9.31339      6.54135     -0.29314    177.9    149.5      6.2     -6.0    530.7     72.0    146.3    146.3 146.25404 146.25404   0.00000   0.00000   0.00000   0.00000   3.14073  -0.40992  60.34769
       5 2002 12 21  0  0 15 775  3.8880    157.66069   1316.87789   1012.66025     -9.32684      5.90046     -0.42139    177.9    149.5      6.2     -6.0    530.5     72.0    146.3    146.3 146.25404 146.25404   0.00000   0.00000   0.00000   0.00000   3.14045  -0.40992  60.67106
       6 2002 12 21  0  0 19 610  3.8353    157.72697   1316.83748   1012.86948    -10.36925      6.11710     -0.54060    177.9    149.5      6.3     -6.0    530.2     72.1    146.3    146.3 146.25404 146.25404   0.00000   0.00000   0.00000   0.00000   3.14017  -0.40992  60.61732
       7 2002 12 21  0  0 23 420  3.8101    157.79803   1316.81031   1013.08246    -10.86891      6.64414     -0.64377    177.9    149.5      6.3     -6.0    530.0     72.1    146.3    146.3 146.25404 146.25404   0.00000   0.00000   0.00000   0.00000   3.13989  -0.40992  60.67173
       8 2002 12 21  0  0 27 208  3.7875    157.84491   1316.79885   1013.29802    -11.91440      7.36070     -0.73782    177.9    149.5      6.3     -6.0    529.8     72.2    146.3    146.3 146.25404 146.25404   0.00000   0.00000   0.00000   0.00000   3.13961  -0.40992  60.64437
       9 2002 12 21  0  0 30 973  3.7659    157.88096   1316.80304   1013.51546    -13.19544      7.87143     -0.82865    177.9    149.5      6.4     -6.0    529.5     72.2    146.3    146.3 146.25404 146.25404   0.00000   0.00000   0.00000   0.00000   3.13934  -0.40992  60.64675
      10 2002 12 21  0  0 34 725  3.7519    157.91854   1316.82175   1013.73476    -13.54150      8.78838     -0.91637    177.9    149.5      6.4     -6.0    529.3     72.3    146.3    146.3 146.25404 146.25404   0.00000   0.00000   0.00000   0.00000   3.13907  -0.40992  60.61258
      11 2002 12 21  0  0 38 476  3.7509    157.97068   1316.85380   1013.95625    -15.10628      9.98463     -1.00115    177.9    149.5      6.4     -6.0    529.0     72.3    146.3    146.3 146.25404 146.25404   0.00000   0.00000   0.00000   0.00000   3.13879  -0.40992  60.59951
      12 2002 12 21  0  0 42 228  3.7515    158.04070   1316.89879   1014.17955    -16.50515     10.75680     -1.07809    177.9    149.5      6.5     -6.0    528.8     72.4    146.3    146.3 146.25404 146.25404   0.00000   0.00000   0.00000   0.00000   3.13852  -0.40992  60.55952
      13 2002 12 21  0  0 45 982  3.7544    158.10973   1316.95561   1014.40422    -17.54805     11.72228     -1.14739    177.9    149.5      6.5     -6.0    528.6     72.4    146.3    146.3 146.25404 146.25404   0.00000   0.00000   0.00000   0.00000   3.13825  -0.40992  60.54002
      14 2002 12 21  0  0 49 746  3.7634    158.15574   1317.02259   1014.63026    -18.63411     12.86453     -1.21429    177.9    149.5      6.5     -6.0    528.3     72.5    146.3    146.3 146.25404 146.25404   0.00000   0.00000   0.00000   0.00000   3.13798  -0.40992  60.49630
      15 2002 12 21  0  0 53 519  3.7737    158.19134   1317.09873   1014.85748    -19.83163     14.40808     -1.28239    177.9    149.5      6.6     -6.0    528.1     72.5    146.3    146.3 146.25404 146.25404   0.00000   0.00000   0.00000   0.00000   3.13770  -0.40992  60.47362
      16 2002 12 21  0  0 57 300  3.7808    158.22160   1317.73094   1015.08558    -21.91267     14.68903     -1.34921    177.9    149.5      6.6     -6.0    527.8     72.5    146.3    146.3 146.25404 146.25404   0.00000   0.00000   0.00000   0.00000   3.13743  -0.40992  60.42784
      17 2002 12 21  0  1  1  85  3.7853    158.25718   1318.40872   1015.31423    -22.55916     16.15904     -1.41107    177.9    149.5      6.6     -6.0    527.7     72.6    146.3    146.3 146.25404 146.25404   0.00000   0.00000   0.00000   0.00000   3.13715  -0.40992  60.40363
      18 2002 12 21  0  1  4 875  3.7892    158.30116   1319.07256   1015.54325    -24.79033     17.44534     -1.46490    177.9    149.5      6.6     -6.0    527.8     72.5    149.2    149.2 149.19902 149.19902   0.00000   0.00000   0.00000   0.00000   3.13687  -0.40992  60.35653
      19 2002 12 21  0  1  8 665  3.7905    158.34935   1319.72009   1015.77206    -25.82739     18.77885     -1.51325    177.9    149.5      6.6     -6.0    527.9     72.5    149.2    149.2 149.19902 149.19902   0.00000   0.00000   0.00000   0.00000   3.13660  -0.40992  60.33171
      20 2002 12 21  0  1 12 462  3.7970    158.38742   1320.35314   1016.00071    -28.59055     19.12454     -1.56125    177.9    149.5      6.6     -6.0    528.0     72.4    149.2    149.2 149.19902 149.19902   0.00000   0.00000   0.00000   0.00000   3.13632  -0.40992  60.28422
      21 2002 12 21  0  1 16 262  3.8001    158.40952   1320.97249   1016.22886    -29.52480     20.84840     -1.61058    177.9    149.5      6.6     -6.0    528.2     72.4    149.2    149.2 149.19902 149.19902   0.00000   0.00000   0.00000   0.00000   3.13605  -0.40992  60.25922
      22 2002 12 21  0  1 20  65  3.8028    158.42404   1321.57926   1016.45642    -31.48918     21.14966     -1.65817    177.9    149.5      6.6     -6.1    528.3     72.4    149.2    149.2 149.19902 149.19902   0.00000   0.00000   0.00000   0.00000   3.13577  -0.40992  60.21132
      23 2002 12 21  0  1 23 871  3.8066    158.44197   1322.17375   1016.68335    -33.47053     23.41258     -1.70084    177.9    149.5      6.6     -6.1    528.4     72.3    149.2    149.2 149.19902 149.19902   0.00000   0.00000   0.00000   0.00000   3.13549  -0.40992  60.18644
      24 2002 12 21  0  1 27 682  3.8106    158.46728   1322.75623   1016.90943    -35.02192     23.64054     -1.73769    177.9    149.5      6.5     -6.1    528.5     72.3    149.2    149.2 149.19902 149.19902   0.00000   0.00000   0.00000   0.00000   3.13522  -0.40992  60.13834
      25 2002 12 21  0  1 31 496  3.8142    158.49532   1323.32675   1017.13439    -37.75342     25.17120     -1.76932    177.9    149.5      6.5     -6.1    528.6     72.2    149.2    149.2 149.19902 149.19902   0.00000   0.00000   0.00000   0.00000   3.13494  -0.40992  60.11377
      26 2002 12 21  0  1 35 314  3.8174    158.51551   1323.88967   1017.35805    -37.76875     26.64870     -1.79731    177.9    149.5      6.5     -6.1    528.7     72.2    149.2    149.2 149.19902 149.19902   0.00000   0.00000   0.00000   0.00000   3.13466  -0.40992  60.06561
      27 2002 12 21  0  1 39 134  3.8205    158.52505   1324.44618   1017.58030    -40.63756     26.06032     -1.82403    177.9    149.5      6.5     -6.1    528.9     72.1    149.2    149.2 149.19902 149.19902   0.00000   0.00000   0.00000   0.00000   3.13438  -0.40992  60.04175
      28 2002 12 21  0  1 42 958  3.8237    158.53361   1324.99559   1017.80113    -42.67679     28.65012     -1.84800    177.9    149.5      6.5     -6.1    529.0     72.1    149.2    149.2 149.19902 149.19902   0.00000   0.00000   0.00000   0.00000   3.13411  -0.40992  59.99332
      29 2002 12 21  0  1 46 785  3.8268    158.55048   1325.53809   1018.02045    -43.03898     29.47238     -1.86671    177.9    149.5      6.5     -6.1    529.1     72.1    149.2    149.2 149.19902 149.19902   0.00000   0.00000   0.00000   0.00000   3.13383  -0.40992  59.96997
      30 2002 12 21  0  1 50 614  3.8291    158.57284   1326.07338   1018.23805    -46.76993     29.82309     -1.87807    177.9    149.5      6.5     -6.1    529.2     72.0    149.2    149.2 149.19902 149.19902   0.00000   0.00000   0.00000   0.00000   3.13355  -0.40992  59.92157
      31 2002 12 21  0  1 54 445  3.8311    158.59316   1326.60137   1018.45380    -47.78828     32.39059     -1.88199    177.9    149.5      6.5     -6.1    529.3     72.0    149.2    149.2 149.19902 149.19902   0.00000   0.00000   0.00000   0.00000   3.13327  -0.40992  59.89872
      32 2002 12 21  0  1 58 278  3.8336    158.60511   1327.12101   1018.66767    -47.83236     33.02402     -1.87895    177.9    149.5      6.4     -6.1    529.4     71.9    149.2    149.2 149.19902 149.19902   0.00000   0.00000   0.00000   0.00000   3.13299  -0.40992  59.85057
      33 2002 12 21  0  2  2 115  3.8366    158.61322   1327.63385   1018.87966    -51.67201     33.02349     -1.86987    177.9    149.5      6.4     -6.1    529.5     72.0    149.2    149.2 149.19902 149.19902   0.00000   0.00000   0.00000   0.00000   3.13271  -0.40992  59.82837
      34 2002 12 21  0  2  5 954  3.8392    158.62697   1328.14039   1019.08989    -52.63429     35.57307     -1.85535    177.9    149.5      6.4     -6.2    529.5     72.1    147.7    147.7 147.71321 147.71321   0.00000   0.00000   0.00000   0.00000   3.13243  -0.40992  59.78019
      35 2002 12 21  0  2  9 793  3.8389    158.65005   1328.64013   1019.29803    -52.93822     36.28766     -1.83536    177.9    149.5      6.4     -6.2    529.6     72.2    147.7    147.7 147.71321 147.71321   0.00000   0.00000   0.00000   0.00000   3.13215  -0.40992  59.75869
      36 2002 12 21  0  2 13 633  3.8401    158.67650   1329.13332   1019.50409    -56.93786     36.58254     -1.80830    177.9    149.5      6.4     -6.2    529.6     72.3    147.7    147.7 147.71321 147.71321   0.00000   0.00000   0.00000   0.00000   3.13187  -0.40992  59.71044
      37 2002 12 21  0  2 17 474  3.8410    158.69771   1329.61980   1019.70807    -58.10292     39.41966     -1.77319    177.9    149.5      6.4     -6.2    529.6     72.4    147.7    147.7 147.71321 147.71321   0.00000   0.00000   0.00000   0.00000   3.13160  -0.40992  59.68961
      38 2002 12 21  0  2 21 316  3.8421    158.71212   1330.42097   1019.91005    -56.29148     40.51092     -1.72976    177.9    149.5      6.4     -6.2    529.6     72.5    147.7    147.7 147.71321 147.71321   0.00000   0.00000   0.00000   0.00000   3.13132  -0.40992  59.64154
      39 2002 12 21  0  2 25 160  3.8434    158.72677   1331.28888   1020.11007    -60.86256     39.61794     -1.67962    177.9    149.5      6.4     -6.2    529.7     72.6    147.7    147.7 147.71321 147.71321   0.00000   0.00000   0.00000   0.00000   3.13104  -0.40992  59.62136
      40 2002 12 21  0  2 29   4  3.8444    158.74954   1332.14815   1020.30817    -62.79404     42.32158     -1.62422    177.9    149.5      6.3     -6.2    529.7     72.7    147.7    147.7 147.71321 147.71321   0.00000   0.00000   0.00000   0.00000   3.13076  -0.40992  59.57333
      41 2002 12 21  0  2 32 848  3.8443    158.78072   1332.99811   1020.50432    -61.09916     43.97133     -1.56409    177.9    149.5      6.3     -6.3    529.7     72.8    147.7    147.7 147.71321 147.71321   0.00000   0.00000   0.00000   0.00000   3.13048  -0.40992  59.55381
      42 2002 12 21  0  2 36 692  3.8433    158.81330   1333.83744   1020.69857    -64.68047     43.69042     -1.49959    177.9    149.5      6.3     -6.3    529.8     72.9    147.7    147.7 147.71321 147.71321   0.00000   0.00000   0.00000   0.00000   3.13020  -0.40992  59.50580
      43 2002 12 21  0  2 40 534  3.8419    158.84087   1334.66661   1020.89103    -67.78824     45.52508     -1.43143    177.9    149.5      6.3     -6.3    529.8     73.0    147.7    147.7 147.71321 147.71321   0.00000   0.00000   0.00000   0.00000   3.12992  -0.40992  59.48699
      44 2002 12 21  0  2 44 374  3.8408    158.86417   1335.48613   1021.08186    -67.50738     47.83119     -1.35875    177.9    149.5      6.3     -6.3    529.8     73.1    147.7    147.7 147.71321 147.71321   0.00000   0.00000   0.00000   0.00000   3.12964  -0.40992  59.43897
      45 2002 12 21  0  2 48 214  3.8399    158.88960   1336.29622   1021.27119    -65.76976     48.37965     -1.28255    177.9    149.5      6.3     -6.3    529.9     73.2    147.7    147.7 147.71321 147.71321   0.00000   0.00000   0.00000   0.00000   3.12936  -0.40992  59.42089
      46 2002 12 21  0  2 52  53  3.8390    158.92228   1337.09664   1021.45916    -69.77460     48.01263     -1.20477    177.9    149.5      6.3     -6.3    529.9     73.4    147.7    147.7 147.71321 147.71321   0.00000   0.00000   0.00000   0.00000   3.12908  -0.40992  59.37280
      47 2002 12 21  0  2 55 891  3.8375    158.96101   1337.88716   1021.64586    -71.10650     50.91397     -1.12595    177.9    149.5      6.2     -6.3    529.9     73.5    147.7    147.7 147.71321 147.71321   0.00000   0.00000   0.00000   0.00000   3.12880  -0.40992  59.35557
      48 2002 12 21  0  2 59 726  3.8354    158.99715   1338.66778   1021.83143    -68.63604     52.45143     -1.04486    177.9    149.5      6.2     -6.4    530.0     73.6    147.7    147.7 147.71321 147.71321   0.00000   0.00000   0.00000   0.00000   3.12852  -0.40992  59.30731
      49 2002 12 21  0  3  3 559  3.8330    159.02911   1339.43871   1022.01616    -71.67791     52.18399     -0.96092    177.9    149.5      6.2     -6.3    530.0     73.8    147.7    147.7 147.71321 147.71321   0.00000   0.00000   0.00000   0.00000   3.12824  -0.40992  59.29100
      50 2002 12 21  0  3  7 390  3.8304    159.06021   1340.20462   1022.20051    -74.83729     54.07840     -0.87397    177.9    149.5      6.2     -6.3    530.1     74.0    152.5    152.5 152.54010 152.54010   0.00000   0.00000   0.00000   0.00000   3.12797  -0.40992  59.24256
      51 2002 12 21  0  3 11 214  3.8245    159.09544   1340.96174   1022.38431    -74.78836     56.45229     -0.78322    177.9    149.5      6.3     -6.3    530.2     74.2    152.5    152.5 152.54010 152.54010   0.00000   0.00000   0.00000   0.00000   3.12769  -0.40992  59.22722
      52 2002 12 21  0  3 15  36  3.8218    159.13494   1341.71096   1022.56790    -70.95536     57.28862     -0.68543    177.9    149.5      6.3     -6.3    530.3     74.4    152.5    152.5 152.54010 152.54010   0.00000   0.00000   0.00000   0.00000   3.12741  -0.40992  59.17877
      53 2002 12 21  0  3 18 855  3.8194    159.17457   1342.45246   1022.75150    -74.32244     58.06262     -0.57881    177.9    149.5      6.3     -6.3    530.4     74.6    152.5    152.5 152.54010 152.54010   0.00000   0.00000   0.00000   0.00000   3.12713  -0.40992  59.16455
      54 2002 12 21  0  3 22 672  3.8170    159.21066   1343.18704   1022.93535    -76.31093     59.90266     -0.46064    177.9    149.5      6.3     -6.2    530.5     74.8    152.5    152.5 152.54010 152.54010   0.00000   0.00000   0.00000   0.00000   3.12685  -0.40992  59.11545
      55 2002 12 21  0  3 26 487  3.8149    159.24360   1343.91544   1023.11963    -75.10757     61.71967     -0.32775    177.9    149.5      6.3     -6.2    530.6     75.0    152.5    152.5 152.54010 152.54010   0.00000   0.00000   0.00000   0.00000   3.12658  -0.40992  59.10224
      56 2002 12 21  0  3 30 300  3.8128    159.27738   1344.63834   1023.30466    -74.26223     63.09887     -0.17771    177.9    149.5      6.3     -6.2    530.7     75.2    152.5    152.5 152.54010 152.54010   0.00000   0.00000   0.00000   0.00000   3.12630  -0.40992  59.05274
      57 2002 12 21  0  3 34 111  3.8106    159.31481   1345.35654   1023.49079    -77.35138     65.40615     -0.00938    177.9    149.5      6.3     -6.2    530.8     75.4    152.5    152.5 152.54010 152.54010   0.00000   0.00000   0.00000   0.00000   3.12602  -0.40992  59.04075
      58 2002 12 21  0  3 37 919  3.8083    159.35501   1346.07096   1023.67825    -78.58151     66.72852      0.17904    177.9    149.5      6.3     -6.2    530.8     75.6    152.5    152.5 152.54010 152.54010   0.00000   0.00000   0.00000   0.00000   3.12575  -0.40992  58.99048
      59 2002 12 21  0  3 41 725  3.8058    159.39427   1346.78271   1023.86719    -77.01019     71.36322      0.38945    177.9    149.5      6.3     -6.1    530.9     75.8    152.5    152.5 152.54010 152.54010   0.00000   0.00000   0.00000   0.00000   3.12547  -0.40992  58.97930
      60 2002 12 21  0  3 45 528  3.8032    159.43014   1347.49316   1024.05783    -75.74673     73.78557      0.62381    177.9    149.5      6.4     -6.1    531.0     76.0    152.5    152.5 152.54010 152.54010   0.00000   0.00000   0.00000   0.00000   3.12519  -0.40992  58.92902
      61 2002 12 21  0  3 49 329  3.8007    159.46335   1348.20369   1024.25043    -78.01308     74.20367      0.88310    177.9    149.5      6.4     -6.1    531.1     76.2    152.5    152.5 152.54010 152.54010   0.00000   0.00000   0.00000   0.00000   3.12492  -0.40992  58.91861
      62 2002 12 21  0  3 53 127  3.7983    159.49768   1348.91573   1024.44516    -78.42647     77.44412      1.16684    177.9    149.5      6.4     -6.1    531.2     76.4    152.5    152.5 152.54010 152.54010   0.00000   0.00000   0.00000   0.00000   3.12464  -0.40992  58.86868
      63 2002 12 21  0  3 56 923  3.7962    159.53451   1349.63088   1024.64213    -76.84004     80.97188      1.47424    177.9    149.5      6.4     -6.1    531.3     76.6    152.5    152.5 152.54010 152.54010   0.00000   0.00000   0.00000   0.00000   3.12436  -0.40992  58.85894
      64 2002 12 21  0  4  0 718  3.7945    159.57185   1350.35096   1024.84155    -76.71647     83.58387      1.80311    177.9    149.5      6.4     -6.0    531.4     76.7    152.5    152.5 152.54010 152.54010   0.00000   0.00000   0.00000   0.00000   3.12409  -0.40992  58.80947
      65 2002 12 21  0  4  4 511  3.7932    159.60640   1351.07211   1025.04326    -78.40428     83.97742      2.15023    177.9    149.5      6.3     -6.1    531.5     76.8    163.8    163.8 163.81403 163.81403   0.00000   0.00000   0.00000   0.00000   3.12381  -0.40992  58.80062
      66 2002 12 21  0  4  8 308  3.7971    159.63700   1351.80192   1025.24792    -78.88774     85.54527      2.51337    177.9    149.5      6.3     -6.1    531.7     76.8    163.8    163.8 163.81403 163.81403   0.00000   0.00000   0.00000   0.00000   3.12354  -0.40992  58.75146
      67 2002 12 21  0  4 12 104  3.7965    159.66613   1352.54155   1025.45528    -76.91154     90.94034      2.88857    177.9    149.5      6.2     -6.1    531.8     76.9    163.8    163.8 163.81403 163.81403   0.00000   0.00000   0.00000   0.00000   3.12326  -0.40992  58.74308
      68 2002 12 21  0  4 15 900  3.7958    159.69746   1353.29366   1025.66532    -75.65513     93.93828      3.27278    177.9    149.5      6.2     -6.1    532.0     76.9    163.8    163.8 163.81403 163.81403   0.00000   0.00000   0.00000   0.00000   3.12298  -0.40992  58.69328
      69 2002 12 21  0  4 19 695  3.7952    159.73173   1354.06069   1025.87802    -76.89406     94.79074      3.66173    177.9    149.5      6.1     -6.2    532.1     76.9    163.8    163.8 163.81403 163.81403   0.00000   0.00000   0.00000   0.00000   3.12271  -0.40992  58.68564
      70 2002 12 21  0  4 23 490  3.7945    159.76627   1354.84518   1026.09333    -76.99544     94.75270      4.05167    177.9    149.5      6.0     -6.2    532.3     77.0    163.8    163.8 163.81403 163.81403   0.00000   0.00000   0.00000   0.00000   3.12243  -0.40992  58.63674
      71 2002 12 21  0  4 27 284  3.7939    159.79759   1355.64979   1026.31109    -74.53759     99.58712      4.44031    177.9    149.5      6.0     -6.2    532.4     77.0    163.8    163.8 163.81403 163.81403   0.00000   0.00000   0.00000   0.00000   3.12216  -0.40992  58.62973
      72 2002 12 21  0  4 31  77  3.7934    159.82498   1356.47734   1026.53110    -74.03373    103.20513      4.82504    177.9    149.5      5.9     -6.2    532.6     77.0    163.8    163.8 163.81403 163.81403   0.00000   0.00000   0.00000   0.00000   3.12188  -0.40992  58.58075
      73 2002 12 21  0  4 34 870  3.7930    159.85110   1357.33084   1026.75314    -75.29075    104.36529      5.20264    177.9    149.5      5.9     -6.3    532.7     77.1    163.8    163.8 163.81403 163.81403   0.00000   0.00000   0.00000   0.00000   3.12160  -0.40992  58.57420
      74 2002 12 21  0  4 38 663  3.7928    159.87882   1358.21346   1026.97698    -74.67963    104.06403      5.57051    177.9    149.5      5.8     -6.3    532.9     77.1    163.8    163.8 163.81403 163.81403   0.00000   0.00000   0.00000   0.00000   3.12133  -0.40992  58.52566
      75 2002 12 21  0  4 42 456  3.7928    159.90821   1359.12846   1027.20232    -71.61941    107.93361      5.92838    177.9    149.5      5.8     -6.3    533.0     77.1    163.8    163.8 163.81403 163.81403   0.00000   0.00000   0.00000   0.00000   3.12105  -0.40992  58.51957
      76 2002 12 21  0  4 46 249  3.7930    159.93696   1360.07919   1027.42876    -71.85014    112.18488      6.27649    177.9    149.5      5.7     -6.3    533.2     77.2    163.8    163.8 163.81403 163.81403   0.00000   0.00000   0.00000   0.00000   3.12078  -0.40992  58.47095
      77 2002 12 21  0  4 50  42  3.7935    159.96329   1361.06889   1027.65582    -72.10339    114.77985      6.61528    177.9    149.5      5.7     -6.4    533.3     77.2    163.8    163.8 163.81403 163.81403   0.00000   0.00000   0.00000   0.00000   3.12050  -0.40992  58.46528
      78 2002 12 21  0  4 53 836  3.7941    159.98796   1362.10072   1027.88307    -70.52529    116.36933      6.94550    177.9    149.5      5.6     -6.4    533.5     77.2    163.8    163.8 163.81403 163.81403   0.00000   0.00000   0.00000   0.00000   3.12022  -0.40992  58.41690
      79 2002 12 21  0  4 57 631  3.7948    160.01332   1363.17792   1028.11004    -68.08998    115.35008      7.26785    177.9    149.5      5.5     -6.4    533.6     77.3    163.8    163.8 163.81403 163.81403   0.00000   0.00000   0.00000   0.00000   3.11995  -0.40992  58.41163
      80 2002 12 21  0  5  1 427  3.7955    160.04061   1364.30341   1028.33620    -68.59942    119.66662      7.58330    177.9    149.5      5.5     -6.4    533.7     77.2    163.8    163.8 163.81403 163.81403   0.00000   0.00000   0.00000   0.00000   3.11967  -0.40992  58.36307
      81 2002 12 21  0  5  5 223  3.7963    160.06863   1365.48626   1028.56146    -67.67259    122.26427      7.89305    177.9    149.5      5.5     -6.4    533.8     77.1    166.0    166.0 165.96170 165.96170   0.00000   0.00000   0.00000   0.00000   3.11940  -0.40992  58.35852
      82 2002 12 21  0  5  9  17  3.7944    160.09520   1366.72289   1028.78486    -64.92510    124.62554      8.19798    177.9    149.5      5.4     -6.4    533.8     76.9    166.0    166.0 165.96170 165.96170   0.00000   0.00000   0.00000   0.00000   3.11912  -0.40992  58.30987
      83 2002 12 21  0  5 12 812  3.7952    160.11965   1368.01510   1029.00590    -64.57277    125.10134      8.49806    177.9    149.5      5.4     -6.5    533.9     76.8    166.0    166.0 165.96170 165.96170   0.00000   0.00000   0.00000   0.00000   3.11884  -0.40992  58.30519
      84 2002 12 21  0  5 16 608  3.7959    160.14359   1369.36354   1029.22407    -63.76675    126.41292      8.79378    177.9    149.5      5.4     -6.5    534.0     76.6    166.0    166.0 165.96170 165.96170   0.00000   0.00000   0.00000   0.00000   3.11857  -0.40992  58.25807
      85 2002 12 21  0  5 20 405  3.7965    160.16925   1370.76859   1029.43881    -61.48488    129.67026      9.08465    177.9    149.5      5.4     -6.5    534.0     76.4    166.0    166.0 165.96170 165.96170   0.00000   0.00000   0.00000   0.00000   3.11829  -0.40992  58.25387
      86 2002 12 21  0  5 24 202  3.7970    160.19720   1372.22972   1029.64969    -60.83178    133.27939      9.36985    177.9    149.5      5.3     -6.5    534.1     76.3    166.0    166.0 165.96170 165.96170   0.00000   0.00000   0.00000   0.00000   3.11802  -0.40992  58.20636
      87 2002 12 21  0  5 27 999  3.7973    160.22592   1373.74539   1029.85637    -59.83121    135.12537      9.64816    177.9    149.5      5.3     -6.5    534.2     76.1    166.0    166.0 165.96170 165.96170   0.00000   0.00000   0.00000   0.00000   3.11774  -0.40992  58.20255
      88 2002 12 21  0  5 31 797  3.7976    160.25353   1375.31312   1030.05868    -57.82548    134.39197      9.91734    177.9    149.5      5.3     -6.5    534.2     76.0    166.0    166.0 165.96170 165.96170   0.00000   0.00000   0.00000   0.00000   3.11746  -0.40992  58.15531
      89 2002 12 21  0  5 35 595  3.7978    160.27974   1376.92939   1030.25646    -57.37775    136.05131     10.17540    177.9    149.5      5.3     -6.5    534.3     75.8    166.0    166.0 165.96170 165.96170   0.00000   0.00000   0.00000   0.00000   3.11719  -0.40992  58.15196
      90 2002 12 21  0  5 39 392  3.7980    160.30598   1378.58958   1030.44978    -55.92548    139.30344     10.41999    177.9    149.5      5.2     -6.5    534.3     75.6    166.0    166.0 165.96170 165.96170   0.00000   0.00000   0.00000   0.00000   3.11691  -0.40992  58.10473
      91 2002 12 21  0  5 43 191  3.7982    160.33378   1380.28793   1030.63878    -55.14390    142.64751     10.64868    177.9    149.5      5.2     -6.5    534.4     75.5    166.0    166.0 165.96170 165.96170   0.00000   0.00000   0.00000   0.00000   3.11664  -0.40992  58.10183
      92 2002 12 21  0  5 46 989  3.7984    160.36322   1382.01754   1030.82387    -54.01134    143.40894     10.85908    177.9    149.5      5.2     -6.5    534.5     75.3    166.0    166.0 165.96170 165.96170   0.00000   0.00000   0.00000   0.00000   3.11636  -0.40992  58.05491
      93 2002 12 21  0  5 50 788  3.7986    160.39309   1383.77048   1031.00552    -53.39338    141.79630     11.04877    177.9    149.5      5.2     -6.5    534.5     75.2    166.0    166.0 165.96170 165.96170   0.00000   0.00000   0.00000   0.00000   3.11608  -0.40992  58.05258
      94 2002 12 21  0  5 54 586  3.7986    160.42228   1385.53772   1031.18447    -52.82877    144.52904     11.21606    177.9    149.5      5.1     -6.5    534.6     75.0    166.0    166.0 165.96170 165.96170   0.00000   0.00000   0.00000   0.00000   3.11581  -0.40992  58.00585
      95 2002 12 21  0  5 58 385  3.7986    160.45100   1387.31179   1031.36158    -52.74817    148.79187     11.35986    177.9    149.5      5.1     -6.5    534.7     74.8    166.0    166.0 165.96170 165.96170   0.00000   0.00000   0.00000   0.00000   3.11553  -0.40992  58.00398
      96 2002 12 21  0  6  2 183  3.7984    160.48031   1389.08289   1031.53793    -52.76710    150.78204     11.47904    177.9    149.5      5.2     -6.4    534.8     74.7    166.0    166.0 165.96170 165.96170   0.00000   0.00000   0.00000   0.00000   3.11525  -0.40992  57.95759
      97 2002 12 21  0  6  5 981  3.7980    160.51093   1390.83208   1031.71493    -53.28773    150.34891     11.57289    177.9    149.5      5.4     -6.4    535.0     74.6    159.9    159.9 159.89983 159.89983   0.00000   0.00000   0.00000   0.00000   3.11498  -0.40992  57.95640
      98 2002 12 21  0  6  9 781  3.7995    160.54249   1392.55149   1031.89390    -53.41884    148.78717     11.64141    177.9    149.5      5.5     -6.3    535.3     74.5    159.9    159.9 159.89983 159.89983   0.00000   0.00000   0.00000   0.00000   3.11470  -0.40992  57.90995
      99 2002 12 21  0  6 13 580  3.7990    160.57400   1394.22912   1032.07624    -53.31652    152.15785     11.68520    177.9    149.5      5.7     -6.2    535.5     74.4    159.9    159.9 159.89983 159.89983   0.00000   0.00000   0.00000   0.00000   3.11443  -0.40992  57.90897
     100 2002 12 21  0  6 17 378  3.7983    160.60506   1395.85284   1032.26352    -52.96194    155.01313     11.70502    177.8    149.5      5.9     -6.2    535.7     74.3    159.9    159.9 159.89983 159.89983   0.00000   0.00000   0.00000   0.00000   3.11415  -0.40992  57.86355
     101 2002 12 21  0  6 21 176  3.7976    160.63617   1397.41031   1032.45733    -53.74091    155.69392     11.70120    177.8    149.5      6.0     -6.1    536.0     74.2    159.9    159.9 159.89983 159.89983   0.00000   0.00000   0.00000   0.00000   3.11387  -0.40992  57.86306
     102 2002 12 21  0  6 24 973  3.7969    160.66813   1398.88994   1032.65927    -54.28992    154.18183     11.67550    177.8    149.5      6.2     -6.0    536.2     74.1    159.9    159.9 159.89983 159.89983   0.00000   0.00000   0.00000   0.00000   3.11360  -0.40992  57.81771
     103 2002 12 21  0  6 28 769  3.7961    160.70098   1400.28082   1032.87086    -54.13450    153.96677     11.62972    177.8    149.5      6.4     -5.9    536.4     74.0    159.9    159.9 159.89983 159.89983   0.00000   0.00000   0.00000   0.00000   3.11332  -0.40992  57.81770
     104 2002 12 21  0  6 32 564  3.7952    160.73397   1401.57251   1033.09354    -53.23200    157.12561     11.56567    177.8    149.5      6.5     -5.9    536.6     73.9    159.9    159.9 159.89983 159.89983   0.00000   0.00000   0.00000   0.00000   3.11304  -0.40992  57.77288
     105 2002 12 21  0  6 36 358  3.7943    160.76629   1402.75540   1033.32854    -54.87593    158.61330     11.48526    177.8    149.5      6.7     -5.8    536.9     73.9    159.9    159.9 159.89983 159.89983   0.00000   0.00000   0.00000   0.00000   3.11277  -0.40992  57.77332
     106 2002 12 21  0  6 40 151  3.7932    160.79794   1403.82113   1033.57692    -56.00499    158.05416     11.39016    177.8    149.5      6.8     -5.7    537.1     73.8    159.9    159.9 159.89983 159.89983   0.00000   0.00000   0.00000   0.00000   3.11249  -0.40992  57.72864
     107 2002 12 21  0  6 43 943  3.7922    160.82967   1404.76217   1033.83942    -56.98426    155.60218     11.28280    177.8    149.5      7.0     -5.6    537.3     73.7    159.9    159.9 159.89983 159.89983   0.00000   0.00000   0.00000   0.00000   3.11222  -0.40992  57.72952
     108 2002 12 21  0  6 47 735  3.7910    160.86218   1405.57213   1034.11650    -59.75486    157.99045     11.16395    177.8    149.5      7.2     -5.6    537.6     73.6    159.9    159.9 159.89983 159.89983   0.00000   0.00000   0.00000   0.00000   3.11194  -0.40992  57.68543
     109 2002 12 21  0  6 51 524  3.7899    160.89540   1406.24577   1034.40824    -62.01702    159.78893     11.03528    177.8    149.5      7.3     -5.5    537.8     73.5    159.9    159.9 159.89983 159.89983   0.00000   0.00000   0.00000   0.00000   3.11167  -0.40992  57.68679
     110 2002 12 21  0  6 55 313  3.7888    160.92860   1406.77934   1034.71439    -63.59965    159.91523     10.89821    177.8    149.5      7.5     -5.4    538.0     73.4    159.9    159.9 159.89983 159.89983   0.00000   0.00000   0.00000   0.00000   3.11139  -0.40992  57.64296
     111 2002 12 21  0  6 59 101  3.7876    160.96118   1407.17054   1035.03427    -64.36785    158.26523     10.75399    177.8    149.5      7.7     -5.3    538.3     73.3    159.9    159.9 159.89983 159.89983   0.00000   0.00000   0.00000   0.00000   3.11111  -0.40992  57.64476
     112 2002 12 21  0  7  2 887  3.7865    160.99321   1407.41838   1035.36686    -65.75416    158.96619     10.60369    177.8    149.5      7.7     -5.3    538.3     73.2    159.9    159.9 159.89983 159.89983   0.00000   0.00000   0.00000   0.00000   3.11084  -0.40992  57.60146
     113 2002 12 21  0  7  6 673  3.7854    161.02521   1407.51010   1035.71042    -68.56051    160.73291     10.44814    177.8    149.5      7.7     -5.4    538.3     73.1    152.5    152.5 152.48729 152.48729   0.00000   0.00000   0.00000   0.00000   3.11056  -0.40992  57.60390
     114 2002 12 21  0  7 10 460  3.7874    161.05758   1407.45623   1036.06355    -70.75996    161.09195     10.28831    177.8    149.5      7.6     -5.4    538.3     73.1    152.5    152.5 152.48729 152.48729   0.00000   0.00000   0.00000   0.00000   3.11029  -0.40992  57.56080
     115 2002 12 21  0  7 14 246  3.7863    161.09008   1407.26112   1036.42406    -72.16839    159.83966     10.12394    177.8    149.5      7.6     -5.4    538.3     73.0    152.5    152.5 152.48729 152.48729   0.00000   0.00000   0.00000   0.00000   3.11001  -0.40992  57.56363
     116 2002 12 21  0  7 18  32  3.7853    161.12217   1406.93004   1036.78968    -73.05171    160.84148      9.95598    177.8    149.5      7.6     -5.5    538.3     73.0    152.5    152.5 152.48729 152.48729   0.00000   0.00000   0.00000   0.00000   3.10974  -0.40992  57.52035
     117 2002 12 21  0  7 21 816  3.7843    161.15359   1406.46843   1037.15780    -74.46776    162.19994      9.78490    177.8    149.5      7.5     -5.5    538.3     72.9    152.5    152.5 152.48729 152.48729   0.00000   0.00000   0.00000   0.00000   3.10946  -0.40992  57.52370
     118 2002 12 21  0  7 25 599  3.7833    161.18455   1405.88272   1037.52567    -77.27782    162.25340      9.61064    177.8    149.5      7.5     -5.5    538.3     72.8    152.5    152.5 152.48729 152.48729   0.00000   0.00000   0.00000   0.00000   3.10919  -0.40992  57.48128
     119 2002 12 21  0  7 29 382  3.7823    161.21546   1405.18029   1037.89038    -79.39040    162.01375      9.43301    177.8    149.5      7.5     -5.6    538.3     72.8    152.5    152.5 152.48729 152.48729   0.00000   0.00000   0.00000   0.00000   3.10891  -0.40992  57.48512
     120 2002 12 21  0  7 33 163  3.7813    161.24651   1404.36941   1038.24900    -81.22127    163.60170      9.25235    177.8    149.5      7.5     -5.6    538.3     72.7    152.5    152.5 152.48729 152.48729   0.00000   0.00000   0.00000   0.00000   3.10864  -0.40992  57.44283
     121 2002 12 21  0  7 36 943  3.7804    161.27746   1403.45913   1038.59854    -82.77969    164.02908      9.06848    177.8    149.5      7.4     -5.6    538.3     72.7    152.5    152.5 152.48729 152.48729   0.00000   0.00000   0.00000   0.00000   3.10836  -0.40992  57.44704
     122 2002 12 21  0  7 40 723  3.7795    161.30802   1402.45916   1038.93615    -83.35011    164.53541      8.88166    177.8    149.5      7.4     -5.7    538.3     72.6    152.5    152.5 152.48729 152.48729   0.00000   0.00000   0.00000   0.00000   3.10809  -0.40992  57.40522
     123 2002 12 21  0  7 44 501  3.7786    161.33818   1401.37975   1039.25902    -85.73732    165.66415      8.69207    177.8    149.5      7.4     -5.7    538.3     72.5    152.5    152.5 152.48729 152.48729   0.00000   0.00000   0.00000   0.00000   3.10781  -0.40992  57.40979
     124 2002 12 21  0  7 48 279  3.7778    161.36823   1400.23159   1039.56459    -88.49596    166.27655      8.49981    177.8    149.5      7.3     -5.7    538.3     72.5    152.5    152.5 152.48729 152.48729   0.00000   0.00000   0.00000   0.00000   3.10754  -0.40992  57.36810
     125 2002 12 21  0  7 52  56  3.7770    161.39844   1399.02572   1039.85044    -90.97459    167.39355      8.30506    177.8    149.5      7.3     -5.8    538.3     72.4    152.5    152.5 152.48729 152.48729   0.00000   0.00000   0.00000   0.00000   3.10726  -0.40992  57.37299
     126 2002 12 21  0  7 55 833  3.7763    161.42874   1397.77351   1040.11444    -92.53326    168.59664      8.10841    177.8    149.5      7.3     -5.8    538.3     72.4    152.5    152.5 152.48729 152.48729   0.00000   0.00000   0.00000   0.00000   3.10699  -0.40992  57.33163
     127 2002 12 21  0  7 59 608  3.7756    161.45881   1396.48638   1040.35466    -93.04238    169.97303      7.91004    177.8    149.5      7.2     -5.8    538.3     72.3    152.5    152.5 152.48729 152.48729   0.00000   0.00000   0.00000   0.00000   3.10671  -0.40992  57.33683
     128 2002 12 21  0  8  3 383  3.7750    161.48840   1395.17569   1040.56953    -92.72215    171.76697      7.71013    177.8    149.5      7.2     -5.8    537.9     72.3    152.5    152.5 152.48729 152.48729   0.00000   0.00000   0.00000   0.00000   3.10644  -0.40992  57.29557
     129 2002 12 21  0  8  7 158  3.7745    161.51761   1393.86512   1040.75865    -95.69124    173.90420      7.50927    177.8    149.5      7.3     -5.8    537.5     72.4    149.4    149.4 149.44080 149.44080   0.00000   0.00000   0.00000   0.00000   3.10617  -0.40992  57.30120
     130 2002 12 21  0  8 10 924  3.7664    161.54674   1392.55772   1040.91988    -98.08600    175.50718      7.30664    177.8    149.5      7.3     -5.8    537.1     72.5    149.4    149.4 149.44080 149.44080   0.00000   0.00000   0.00000   0.00000   3.10589  -0.40992  57.26016
     131 2002 12 21  0  8 14 690  3.7660    161.57607   1391.26194   1041.05291    -99.57588    176.49868      7.10603    177.8    149.5      7.3     -5.8    536.7     72.5    149.4    149.4 149.44080 149.44080   0.00000   0.00000   0.00000   0.00000   3.10562  -0.40992  57.26581
     132 2002 12 21  0  8 18 456  3.7656    161.60552   1389.98789   1041.15728   -100.01232    176.83531      6.90609    177.8    149.5      7.3     -5.8    536.3     72.6    149.4    149.4 149.44080 149.44080   0.00000   0.00000   0.00000   0.00000   3.10534  -0.40992  57.22537
     133 2002 12 21  0  8 22 221  3.7651    161.63486   1388.74588   1041.23281    -99.31384    176.44045      6.70741    177.8    149.5      7.3     -5.8    535.9     72.6    149.4    149.4 149.44080 149.44080   0.00000   0.00000   0.00000   0.00000   3.10507  -0.40992  57.23132
     134 2002 12 21  0  8 25 985  3.7647    161.66394   1387.54572   1041.27972    -99.97580    175.47722      6.51070    177.8    149.5      7.3     -5.8    535.5     72.7    149.4    149.4 149.44080 149.44080   0.00000   0.00000   0.00000   0.00000   3.10480  -0.40992  57.19093
     135 2002 12 21  0  8 29 750  3.7642    161.69287   1386.39663   1041.29842   -102.26740    173.89618      6.31642    177.8    149.5      7.3     -5.8    535.1     72.7    149.4    149.4 149.44080 149.44080   0.00000   0.00000   0.00000   0.00000   3.10452  -0.40992  57.19708
     136 2002 12 21  0  8 33 513  3.7638    161.72189   1385.30725   1041.28965   -103.67595    171.71435      6.12501    177.8    149.5      7.3     -5.8    534.7     72.8    149.4    149.4 149.44080 149.44080   0.00000   0.00000   0.00000   0.00000   3.10425  -0.40992  57.15677
     137 2002 12 21  0  8 37 277  3.7635    161.75112   1384.28555   1041.25433   -104.08880    168.95165      5.93685    177.8    149.5      7.3     -5.7    534.3     72.9    149.4    149.4 149.44080 149.44080   0.00000   0.00000   0.00000   0.00000   3.10398  -0.40992  57.16313
     138 2002 12 21  0  8 41  40  3.7631    161.78047   1383.33874   1041.19363   -103.40286    165.63056      5.75240    177.8    149.5      7.3     -5.7    533.9     72.9    149.4    149.4 149.44080 149.44080   0.00000   0.00000   0.00000   0.00000   3.10370  -0.40992  57.12287
     139 2002 12 21  0  8 44 803  3.7628    161.80976   1382.47326   1041.10884   -101.62064    161.77585      5.57175    177.8    149.5      7.3     -5.7    533.5     73.0    149.4    149.4 149.44080 149.44080   0.00000   0.00000   0.00000   0.00000   3.10343  -0.40992  57.12937
     140 2002 12 21  0  8 48 565  3.7624    161.83894   1381.69473   1041.00148   -103.38543    157.41437      5.39492    177.8    149.5      7.3     -5.7    533.1     73.0    149.4    149.4 149.44080 149.44080   0.00000   0.00000   0.00000   0.00000   3.10315  -0.40992  57.08918
     141 2002 12 21  0  8 52 327  3.7621    161.86812   1381.00794   1040.87314   -104.74541    152.57476      5.22169    177.8    149.5      7.4     -5.7    532.7     73.1    149.4    149.4 149.44080 149.44080   0.00000   0.00000   0.00000   0.00000   3.10288  -0.40992  57.09589
     142 2002 12 21  0  8 56  89  3.7617    161.89743   1380.41678   1040.72560   -105.19740    147.28724      5.05236    177.8    149.5      7.4     -5.7    532.3     73.2    149.4    149.4 149.44080 149.44080   0.00000   0.00000   0.00000   0.00000   3.10261  -0.40992  57.05585
     143 2002 12 21  0  8 59 851  3.7614    161.92693   1379.92420   1040.56063   -104.64340    141.58276      4.88628    177.8    149.5      7.4     -5.7    531.9     73.2    149.4    149.4 149.44080 149.44080   0.00000   0.00000   0.00000   0.00000   3.10233  -0.40992  57.06277
     144 2002 12 21  0  9  3 612  3.7611    161.95653   1379.53212   1040.38016   -103.01267    135.49400      4.72298    177.8    149.5      7.3     -5.7    531.6     73.2    149.4    149.4 149.44080 149.44080   0.00000   0.00000   0.00000   0.00000   3.10206  -0.40992  57.02280
     145 2002 12 21  0  9  7 372  3.7608    161.98617   1379.23798   1040.18607   -103.26014    129.42640      4.56264    177.8    149.5      7.3     -5.7    531.3     73.3    150.7    150.7 150.72312 150.72312   0.00000   0.00000   0.00000   0.00000   3.10179  -0.40992  57.02999
     146 2002 12 21  0  9 11 139  3.7662    162.01593   1379.04471   1039.98001   -104.64467    123.63515      4.40516    177.8    149.5      7.2     -5.7    531.1     73.3    150.7    150.7 150.72312 150.72312   0.00000   0.00000   0.00000   0.00000   3.10151  -0.40992  56.98999
     147 2002 12 21  0  9 14 904  3.7659    162.04593   1378.95249   1039.76421   -105.17696    117.57450      4.24880    177.8    149.5      7.2     -5.7    530.8     73.4    150.7    150.7 150.72312 150.72312   0.00000   0.00000   0.00000   0.00000   3.10124  -0.40992  56.99734
     148 2002 12 21  0  9 18 670  3.7655    162.07621   1378.96005   1039.54079   -104.79122    111.27988      4.09388    177.8    149.5      7.1     -5.7    530.5     73.4    150.7    150.7 150.72312 150.72312   0.00000   0.00000   0.00000   0.00000   3.10096  -0.40992  56.95753
     149 2002 12 21  0  9 22 435  3.7653    162.10670   1379.06537   1039.31170   -103.41802    104.78635      3.93966    177.8    149.5      7.1     -5.7    530.2     73.4    150.7    150.7 150.72312 150.72312   0.00000   0.00000   0.00000   0.00000   3.10069  -0.40992  56.96515
     150 2002 12 21  0  9 26 200  3.7649    162.13723   1379.26562   1039.07897   -102.85497     98.12969      3.78615    177.8    149.5      7.0     -5.6    530.0     73.5    150.7    150.7 150.72312 150.72312   0.00000   0.00000   0.00000   0.00000   3.10042  -0.40992  56.92533
     151 2002 12 21  0  9 29 965  3.7646    162.16772   1379.55685   1038.84450   -104.14292     91.88121      3.63299    177.8    149.5      7.0     -5.6    529.7     73.5    150.7    150.7 150.72312 150.72312   0.00000   0.00000   0.00000   0.00000   3.10014  -0.40992  56.93310
     152 2002 12 21  0  9 33 729  3.7641    162.19819   1379.93458   1038.61021   -104.63441     85.94416      3.48040    177.8    149.5      7.0     -5.6    529.4     73.5    150.7    150.7 150.72312 150.72312   0.00000   0.00000   0.00000   0.00000   3.09987  -0.40992  56.89346
     153 2002 12 21  0  9 37 493  3.7637    162.22876   1380.39363   1038.37792   -104.30342     80.07182      3.32753    177.8    149.5      6.9     -5.6    529.1     73.6    150.7    150.7 150.72312 150.72312   0.00000   0.00000   0.00000   0.00000   3.09960  -0.40992  56.90140
     154 2002 12 21  0  9 41 256  3.7632    162.25949   1380.92831   1038.14941   -103.07496     74.15234      3.17498    177.8    149.5      6.9     -5.6    528.8     73.6    150.7    150.7 150.72312 150.72312   0.00000   0.00000   0.00000   0.00000   3.09932  -0.40992  56.86179
     155 2002 12 21  0  9 45  19  3.7628    162.29032   1381.53245   1037.92634   -102.88516     68.21924      3.02282    177.8    149.5      6.8     -5.6    528.6     73.6    150.7    150.7 150.72312 150.72312   0.00000   0.00000   0.00000   0.00000   3.09905  -0.40992  56.86979
     156 2002 12 21  0  9 48 781  3.7623    162.32116   1382.19945   1037.71034   -103.83357     62.30782      2.87132    177.8    149.5      6.8     -5.6    528.3     73.7    150.7    150.7 150.72312 150.72312   0.00000   0.00000   0.00000   0.00000   3.09878  -0.40992  56.83037
     157 2002 12 21  0  9 52 543  3.7618    162.35199   1382.92233   1037.50288   -104.03824     56.44965      2.72109    177.8    149.5      6.7     -5.6    528.0     73.7    150.7    150.7 150.72312 150.72312   0.00000   0.00000   0.00000   0.00000   3.09850  -0.40992  56.83856
     158 2002 12 21  0  9 56 304  3.7614    162.38287   1383.69393   1037.30541   -103.48439     50.67524      2.57190    177.8    149.5      6.7     -5.6    527.7     73.7    150.7    150.7 150.72312 150.72312   0.00000   0.00000   0.00000   0.00000   3.09823  -0.40992  56.79918
     159 2002 12 21  0 10  0  65  3.7609    162.41389   1384.50692   1037.11921   -102.13473     47.02305      2.42440    177.8    149.5      6.6     -5.6    527.5     73.8    150.7    150.7 150.72312 150.72312   0.00000   0.00000   0.00000   0.00000   3.09795  -0.40992  56.80752
     160 2002 12 21  0 10  3 825  3.7604    162.44505   1385.34718   1036.94521   -103.02913     46.17953      2.27910    177.8    149.5      6.6     -5.5    527.2     73.8    151.5    151.5 151.50153 151.50153   0.00000   0.00000   0.00000   0.00000   3.09768  -0.40992  56.76839
     161 2002 12 21  0 10  7 594  3.7686    162.47630   1386.21477   1036.78431   -103.28276     45.87876      2.13769    177.8    149.5      6.6     -5.4    526.9     73.9    151.5    151.5 151.50153 151.50153   0.00000   0.00000   0.00000   0.00000   3.09741  -0.40992  56.77688
     162 2002 12 21  0 10 11 362  3.7681    162.50751   1387.10069   1036.63788   -102.85335     45.65517      1.99857    177.8    149.5      6.6     -5.3    526.6     74.0    151.5    151.5 151.50153 151.50153   0.00000   0.00000   0.00000   0.00000   3.09713  -0.40992  56.73733
     163 2002 12 21  0 10 15 129  3.7674    162.53863   1387.99757   1036.50682   -101.95328     45.49622      1.86352    177.8    149.5      6.6     -5.3    526.4     74.0    151.5    151.5 151.50153 151.50153   0.00000   0.00000   0.00000   0.00000   3.09686  -0.40992  56.74616
     164 2002 12 21  0 10 18 896  3.7669    162.56969   1388.89845   1036.39189   -102.43400     45.38875      1.73328    177.8    149.5      6.6     -5.2    526.1     74.1    151.5    151.5 151.50153 151.50153   0.00000   0.00000   0.00000   0.00000   3.09659  -0.40992  56.70681
     165 2002 12 21  0 10 22 663  3.7664    162.60073   1389.79652   1036.29364   -102.26638     45.31970      1.60861    177.8    149.5      6.6     -5.1    525.8     74.2    151.5    151.5 151.50153 151.50153   0.00000   0.00000   0.00000   0.00000   3.09631  -0.40992  56.71585
     166 2002 12 21  0 10 26 428  3.7658    162.63177   1390.68533   1036.21257   -101.45218     45.27732      1.48982    177.8    149.5      6.6     -5.0    525.5     74.2    151.5    151.5 151.50153 151.50153   0.00000   0.00000   0.00000   0.00000   3.09604  -0.40992  56.67658
     167 2002 12 21  0 10 30 194  3.7652    162.66277   1391.55886   1036.14895   -101.61450     45.25016      1.37752    177.8    149.5      6.5     -5.0    525.3     74.3    151.5    151.5 151.50153 151.50153   0.00000   0.00000   0.00000   0.00000   3.09576  -0.40992  56.68577
     168 2002 12 21  0 10 33 958  3.7646    162.69372   1392.41155   1036.10301   -101.20208     45.22745      1.27230    177.8    149.5      6.5     -4.9    525.0     74.4    151.5    151.5 151.50153 151.50153   0.00000   0.00000   0.00000   0.00000   3.09549  -0.40992  56.64670
     169 2002 12 21  0 10 37 722  3.7639    162.72464   1393.23836   1036.07476   -100.90556     45.19909      1.17450    177.8    149.5      6.5     -4.8    524.7     74.4    151.5    151.5 151.50153 151.50153   0.00000   0.00000   0.00000   0.00000   3.09522  -0.40992  56.65605
     170 2002 12 21  0 10 41 486  3.7633    162.75553   1394.03480   1036.06416   -100.45678     45.15582      1.08487    177.8    149.5      6.5     -4.7    524.4     74.5    151.5    151.5 151.50153 151.50153   0.00000   0.00000   0.00000   0.00000   3.09494  -0.40992  56.61702
     171 2002 12 21  0 10 45 248  3.7626    162.78639   1394.79696   1036.07097   -100.14845     45.08923      1.00347    177.8    149.5      6.5     -4.7    524.2     74.6    151.5    151.5 151.50153 151.50153   0.00000   0.00000   0.00000   0.00000   3.09467  -0.40992  56.62649
     172 2002 12 21  0 10 49  10  3.7619    162.81717   1395.52147   1036.09488    -99.72840     44.99184      0.93076    177.8    149.5      6.5     -4.6    523.9     74.6    151.5    151.5 151.50153 151.50153   0.00000   0.00000   0.00000   0.00000   3.09440  -0.40992  56.58768
     173 2002 12 21  0 10 52 771  3.7613    162.84780   1396.20550   1036.13543    -99.29219     44.85717      0.86685    177.8    149.5      6.5     -4.5    523.6     74.7    151.5    151.5 151.50153 151.50153   0.00000   0.00000   0.00000   0.00000   3.09412  -0.40992  56.59730
     174 2002 12 21  0 10 56 532  3.7606    162.87831   1396.84684   1036.19208    -98.77954     44.67979      0.81200    177.8    149.5      6.5     -4.4    523.3     74.8    151.5    151.5 151.50153 151.50153   0.00000   0.00000   0.00000   0.00000   3.09385  -0.40992  56.55849
     175 2002 12 21  0 11  0 292  3.7600    162.90873   1397.44390   1036.26414    -97.90091     44.45535      0.76609    177.8    149.5      6.5     -4.4    523.1     74.8    151.5    151.5 151.50153 151.50153   0.00000   0.00000   0.00000   0.00000   3.09357  -0.40992  56.56823
     176 2002 12 21  0 11  4  51  3.7593    162.93914   1397.96528   1036.34933    -96.46913     44.18005      0.72895    177.8    149.5      6.5     -4.5    523.4     75.0    154.1    154.1 154.14582 154.14582   0.00000   0.00000   0.00000   0.00000   3.09330  -0.40992  56.52976
     177 2002 12 21  0 11  7 842  3.7911    162.96976   1398.43987   1036.44894    -94.50890     43.85260      0.70605    177.8    149.5      6.5     -4.5    523.7     75.1    154.1    154.1 154.14582 154.14582   0.00000   0.00000   0.00000   0.00000   3.09303  -0.40992  56.53967
     178 2002 12 21  0 11 11 633  3.7905    163.00040   1398.86433   1036.56117    -92.08644     43.46611      0.68607    177.8    149.5      6.5     -4.6    524.0     75.3    154.1    154.1 154.14582 154.14582   0.00000   0.00000   0.00000   0.00000   3.09275  -0.40992  56.50024
     179 2002 12 21  0 11 15 422  3.7895    163.03100   1399.23955   1036.68533    -89.25581     43.02287      0.67475    177.8    149.5      6.5     -4.7    524.2     75.5    154.1    154.1 154.14582 154.14582   0.00000   0.00000   0.00000   0.00000   3.09247  -0.40992  56.51065
     180 2002 12 21  0 11 19 211  3.7891    163.06153   1399.56709   1036.82052    -86.07274     42.52361      0.67195    177.8    149.5      6.5     -4.8    524.5     75.6    154.1    154.1 154.14582 154.14582   0.00000   0.00000   0.00000   0.00000   3.09220  -0.40992  56.47100
     181 2002 12 21  0 11 23   0  3.7886    163.09200   1399.84854   1036.96565    -82.59480     41.97013      0.67742    177.8    149.5      6.5     -4.9    524.8     75.8    154.1    154.1 154.14582 154.14582   0.00000   0.00000   0.00000   0.00000   3.09192  -0.40992  56.48163
     182 2002 12 21  0 11 26 788  3.7881    163.12243   1400.08590   1037.11970    -78.87947     41.36502      0.69088    177.8    149.5      6.5     -5.0    525.1     75.9    154.1    154.1 154.14582 154.14582   0.00000   0.00000   0.00000   0.00000   3.09165  -0.40992  56.44237
     183 2002 12 21  0 11 30 576  3.7876    163.15281   1400.28161   1037.28154    -74.98383     40.71164      0.71171    177.8    149.5      6.6     -5.1    525.4     76.1    154.1    154.1 154.14582 154.14582   0.00000   0.00000   0.00000   0.00000   3.09137  -0.40992  56.45321
     184 2002 12 21  0 11 34 363  3.7870    163.18317   1400.43847   1037.45014    -70.96368     40.01409      0.73984    177.8    149.5      6.6     -5.2    525.7     76.2    154.1    154.1 154.14582 154.14582   0.00000   0.00000   0.00000   0.00000   3.09110  -0.40992  56.41405
     185 2002 12 21  0 11 38 149  3.7864    163.21350   1400.55960   1037.62442    -66.87253     39.27714      0.77486    177.8    149.5      6.6     -5.2    526.0     76.4    154.1    154.1 154.14582 154.14582   0.00000   0.00000   0.00000   0.00000   3.09082  -0.40992  56.42506
     186 2002 12 21  0 11 41 935  3.7858    163.24384   1400.64843   1037.80341    -62.76053     38.50616      0.81651    177.8    149.5      6.6     -5.3    526.3     76.5    154.1    154.1 154.14582 154.14582   0.00000   0.00000   0.00000   0.00000   3.09055  -0.40992  56.38598
     187 2002 12 21  0 11 45 720  3.7852    163.27419   1400.70859   1037.98609    -58.67357     37.70702      0.86454    177.8    149.5      6.6     -5.4    526.6     76.7    154.1    154.1 154.14582 154.14582   0.00000   0.00000   0.00000   0.00000   3.09027  -0.40992  56.39714
     188 2002 12 21  0 11 49 505  3.7846    163.30456   1400.74391   1038.17158    -54.65370     36.88600      0.91838    177.8    149.5      6.6     -5.5    526.9     76.8    154.1    154.1 154.14582 154.14582   0.00000   0.00000   0.00000   0.00000   3.09000  -0.40992  56.35830
     189 2002 12 21  0 11 53 289  3.7841    163.33494   1400.75833   1038.35900    -50.73907     36.04973      0.97775    177.8    149.5      6.6     -5.6    527.1     77.0    154.1    154.1 154.14582 154.14582   0.00000   0.00000   0.00000   0.00000   3.08972  -0.40992  56.36962
     190 2002 12 21  0 11 57  72  3.7835    163.36532   1400.75587   1038.54760    -46.96357     35.20507      1.04227    177.8    149.5      6.7     -5.7    527.4     77.2    154.1    154.1 154.14582 154.14582   0.00000   0.00000   0.00000   0.00000   3.08945  -0.40992  56.33075
     191 2002 12 21  0 12  0 855  3.7829    163.39571   1400.74055   1038.73663    -43.35630     34.35904      1.11159    177.8    149.5      6.7     -5.8    527.7     77.3    154.1    154.1 154.14582 154.14582   0.00000   0.00000   0.00000   0.00000   3.08917  -0.40992  56.34219
     192 2002 12 21  0 12  4 637  3.7822    163.42609   1400.75261   1038.92747    -39.94136     33.51930      1.18558    177.8    149.5      6.6     -5.8    527.7     77.4    160.1    160.1 160.07890 160.07890   0.00000   0.00000   0.00000   0.00000   3.08890  -0.40992  56.30376
     193 2002 12 21  0 12  8 382  3.7449    163.45626   1400.76548   1039.11609    -36.76612     32.69525      1.25769    177.8    149.5      6.6     -5.9    527.7     77.4    160.1    160.1 160.07890 160.07890   0.00000   0.00000   0.00000   0.00000   3.08862  -0.40992  56.31528
     194 2002 12 21  0 12 12 127  3.7444    163.48640   1400.78120   1039.30420    -34.70736     31.89552      1.33920    177.8    149.5      6.6     -6.0    527.7     77.5    160.1    160.1 160.07890 160.07890   0.00000   0.00000   0.00000   0.00000   3.08835  -0.40992  56.27747
     195 2002 12 21  0 12 15 871  3.7444    163.51654   1400.80337   1039.49105    -34.96634     31.12360      1.42415    177.8    149.5      6.6     -6.0    527.7     77.6    160.1    160.1 160.07890 160.07890   0.00000   0.00000   0.00000   0.00000   3.08808  -0.40992  56.28892
     196 2002 12 21  0 12 19 615  3.7436    163.54668   1400.83512   1039.67624    -34.90221     30.38580      1.51202    177.8    149.5      6.6     -6.1    527.7     77.7    160.1    160.1 160.07890 160.07890   0.00000   0.00000   0.00000   0.00000   3.08781  -0.40992  56.25226
     197 2002 12 21  0 12 23 358  3.7429    163.57682   1400.87971   1039.85954    -34.48927     29.68825      1.60259    177.8    149.5      6.5     -6.1    527.7     77.7    160.1    160.1 160.07890 160.07890   0.00000   0.00000   0.00000   0.00000   3.08753  -0.40992  56.26386
     198 2002 12 21  0 12 27 100  3.7422    163.60700   1400.94023   1040.04080    -33.71400     29.03677      1.69560    177.8    149.5      6.5     -6.2    527.7     77.8    160.1    160.1 160.07890 160.07890   0.00000   0.00000   0.00000   0.00000   3.08726  -0.40992  56.22645
     199 2002 12 21  0 12 30 841  3.7416    163.63721   1401.01943   1040.21994    -32.71259     28.43673      1.79066    177.8    149.5      6.5     -6.3    527.7     77.9    160.1    160.1 160.07890 160.07890   0.00000   0.00000   0.00000   0.00000   3.08699  -0.40992  56.23806
     200 2002 12 21  0 12 34 582  3.7409    163.66746   1401.11984   1040.39696    -32.20334     27.89307      1.88739    177.8    149.5      6.5     -6.3    527.7     78.0    160.1    160.1 160.07890 160.07890   0.00000   0.00000   0.00000   0.00000   3.08672  -0.40992  56.20134
     201 2002 12 21  0 12 38 323  3.7404    163.69773   1401.24370   1040.57191    -31.83318     27.41018      1.98551    177.8    149.5      6.5     -6.4    527.7     78.0    160.1    160.1 160.07890 160.07890   0.00000   0.00000   0.00000   0.00000   3.08645  -0.40992  56.21311
     202 2002 12 21  0 12 42  63  3.7398    163.72804   1401.39289   1040.74492    -31.27875     26.99196      2.08477    177.8    149.5      6.4     -6.5    527.7     78.1    160.1    160.1 160.07890 160.07890   0.00000   0.00000   0.00000   0.00000   3.08617  -0.40992  56.17595
     203 2002 12 21  0 12 45 802  3.7392    163.75838   1401.56900   1040.91612    -30.42115     26.90868      2.18470    177.8    149.5      6.4     -6.5    527.7     78.2    160.1    160.1 160.07890 160.07890   0.00000   0.00000   0.00000   0.00000   3.08590  -0.40992  56.18779
     204 2002 12 21  0 12 49 540  3.7387    163.78878   1401.77329   1041.08575    -29.24624     27.38457      2.28519    177.8    149.5      6.4     -6.6    527.7     78.3    160.1    160.1 160.07890 160.07890   0.00000   0.00000   0.00000   0.00000   3.08563  -0.40992  56.15128
     205 2002 12 21  0 12 53 279  3.7381    163.81921   1402.00669   1041.25402    -28.47918     28.24648      2.38578    177.8    149.5      6.4     -6.7    527.7     78.3    160.1    160.1 160.07890 160.07890   0.00000   0.00000   0.00000   0.00000   3.08536  -0.40992  56.16331
     206 2002 12 21  0 12 57  16  3.7375    163.84966   1402.26985   1041.42122    -27.82508     29.08084      2.48636    177.8    149.5      6.4     -6.7    527.7     78.4    160.1    160.1 160.07890 160.07890   0.00000   0.00000   0.00000   0.00000   3.08509  -0.40992  56.12642
     207 2002 12 21  0 13  0 753  3.7369    163.88011   1402.56306   1041.58763    -26.99785     29.88339      2.58653    177.8    149.5      6.4     -6.8    527.6     78.5    160.1    160.1 160.07890 160.07890   0.00000   0.00000   0.00000   0.00000   3.08481  -0.40992  56.13855
     208 2002 12 21  0 13  4 489  3.7363    163.91057   1402.90870   1041.75489    -26.04222     30.65034      2.68627    177.8    149.5      6.4     -6.8    527.5     78.6    167.1    167.1 167.10792 167.10792   0.00000   0.00000   0.00000   0.00000   3.08454  -0.40992  56.10246
     209 2002 12 21  0 13  8 207  3.7174    163.94094   1403.28638   1041.92149    -25.46978     31.37177      2.78248    177.8    149.5      6.4     -6.8    527.3     78.7    167.1    167.1 167.10792 167.10792   0.00000   0.00000   0.00000   0.00000   3.08427  -0.40992  56.11472
     210 2002 12 21  0 13 11 923  3.7169    163.97131   1403.69519   1042.08867    -24.93265     32.05882      2.88038    177.8    149.5      6.4     -6.8    527.2     78.9    167.1    167.1 167.10792 167.10792   0.00000   0.00000   0.00000   0.00000   3.08400  -0.40992  56.07851
     211 2002 12 21  0 13 15 640  3.7166    164.00168   1404.13467   1042.25650    -24.66259     32.70644      2.97743    177.8    149.5      6.4     -6.8    527.0     79.0    167.1    167.1 167.10792 167.10792   0.00000   0.00000   0.00000   0.00000   3.08373  -0.40992  56.09085
     212 2002 12 21  0 13 19 356  3.7159    164.03206   1404.60366   1042.42525    -24.61172     33.31250      3.07348    177.8    149.5      6.4     -6.8    526.9     79.1    167.1    167.1 167.10792 167.10792   0.00000   0.00000   0.00000   0.00000   3.08346  -0.40992  56.05580
     213 2002 12 21  0 13 23  71  3.7153    164.06245   1405.10097   1042.59519    -24.55789     33.87610      3.16853    177.8    149.5      6.4     -6.8    526.8     79.2    167.1    167.1 167.10792 167.10792   0.00000   0.00000   0.00000   0.00000   3.08319  -0.40992  56.06835
     214 2002 12 21  0 13 26 786  3.7147    164.09286   1405.62521   1042.76662    -24.51953     34.39692      3.26253    177.8    149.5      6.4     -6.8    526.6     79.4    167.1    167.1 167.10792 167.10792   0.00000   0.00000   0.00000   0.00000   3.08292  -0.40992  56.03259
     215 2002 12 21  0 13 30 500  3.7142    164.12328   1406.17477   1042.93975    -24.43419     34.87514      3.35537    177.8    149.5      6.4     -6.8    526.5     79.5    167.1    167.1 167.10792 167.10792   0.00000   0.00000   0.00000   0.00000   3.08265  -0.40992  56.04519
     216 2002 12 21  0 13 34 214  3.7136    164.15372   1406.74789   1043.11486    -24.28691     35.31139      3.44692    177.8    149.5      6.5     -6.8    526.3     79.6    167.1    167.1 167.10792 167.10792   0.00000   0.00000   0.00000   0.00000   3.08238  -0.40992  56.01027
     217 2002 12 21  0 13 37 927  3.7131    164.18415   1407.34269   1043.29211    -24.10598     35.70668      3.53731    177.8    149.5      6.5     -6.8    526.2     79.7    167.1    167.1 167.10792 167.10792   0.00000   0.00000   0.00000   0.00000   3.08211  -0.40992  56.02304
     218 2002 12 21  0 13 41 640  3.7126    164.21456   1407.95712   1043.47171    -23.89119     36.06235      3.62640    177.8    149.5      6.5     -6.8    526.0     79.8    167.1    167.1 167.10792 167.10792   0.00000   0.00000   0.00000   0.00000   3.08184  -0.40992  55.98758
     219 2002 12 21  0 13 45 352  3.7121    164.24495   1408.58901   1043.65376    -23.59189     36.38007      3.71438    177.8    149.5      6.5     -6.8    525.9     80.0    167.1    167.1 167.10792 167.10792   0.00000   0.00000   0.00000   0.00000   3.08157  -0.40992  56.00044
     220 2002 12 21  0 13 49  63  3.7116    164.27533   1409.23610   1043.83840    -23.18545     36.66186      3.80116    177.8    149.5      6.5     -6.8    525.7     80.1    167.1    167.1 167.10792 167.10792   0.00000   0.00000   0.00000   0.00000   3.08130  -0.40992  55.96585
     221 2002 12 21  0 13 52 774  3.7111    164.30570   1409.89608   1044.02567    -22.66513     36.90998      3.88687    177.8    149.5      6.5     -6.8    525.6     80.2    167.1    167.1 167.10792 167.10792   0.00000   0.00000   0.00000   0.00000   3.08103  -0.40992  55.97894
     222 2002 12 21  0 13 56 485  3.7106    164.33604   1410.56652   1044.21561    -22.04233     37.12682      3.97144    177.8    149.5      6.5     -6.8    525.5     80.3    167.1    167.1 167.10792 167.10792   0.00000   0.00000   0.00000   0.00000   3.08076  -0.40992  55.94384
     223 2002 12 21  0 14  0 195  3.7102    164.36633   1411.24495   1044.40818    -21.28890     37.31496      4.05497    177.8    149.5      6.5     -6.8    525.3     80.4    167.1    167.1 167.10792 167.10792   0.00000   0.00000   0.00000   0.00000   3.08049  -0.40992  55.95704
     224 2002 12 21  0 14  3 905  3.7097    164.39658   1411.92938   1044.60346    -20.38390     37.47711      4.13733    177.8    149.5      6.5     -6.8    525.3     80.5    170.9    170.9 170.94296 170.94296   0.00000   0.00000   0.00000   0.00000   3.08022  -0.40992  55.92293
     225 2002 12 21  0 14  7 613  3.7083    164.42679   1412.61702   1044.80118    -19.32898     37.61578      4.21852    177.8    149.5      6.5     -6.8    525.3     80.5    170.9    170.9 170.94296 170.94296   0.00000   0.00000   0.00000   0.00000   3.07995  -0.40992  55.93632
     226 2002 12 21  0 14 11 321  3.7078    164.45698   1413.30594   1045.00130    -18.12718     37.73407      4.29885    177.8    149.5      6.5     -6.9    525.3     80.6    170.9    170.9 170.94296 170.94296   0.00000   0.00000   0.00000   0.00000   3.07968  -0.40992  55.90151
     227 2002 12 21  0 14 15  28  3.7074    164.48716   1413.99404   1045.20361    -16.78381     37.83494      4.37820    177.8    149.5      6.5     -6.9    525.3     80.6    170.9    170.9 170.94296 170.94296   0.00000   0.00000   0.00000   0.00000   3.07941  -0.40992  55.91513
     228 2002 12 21  0 14 18 735  3.7070    164.51733   1414.67926   1045.40793    -15.30605     38.51359      4.45653    177.8    149.5      6.5     -6.9    525.2     80.6    170.9    170.9 170.94296 170.94296   0.00000   0.00000   0.00000   0.00000   3.07914  -0.40992  55.88131
     229 2002 12 21  0 14 22 442  3.7065    164.54750   1415.35967   1045.61399    -13.70280     39.45858      4.53384    177.8    149.5      6.4     -6.9    525.2     80.7    170.9    170.9 170.94296 170.94296   0.00000   0.00000   0.00000   0.00000   3.07887  -0.40992  55.89520
     230 2002 12 21  0 14 26 148  3.7061    164.57767   1416.03346   1045.82154    -11.98450     40.40352      4.61012    177.8    149.5      6.4     -6.9    525.2     80.7    170.9    170.9 170.94296 170.94296   0.00000   0.00000   0.00000   0.00000   3.07860  -0.40992  55.86083
     231 2002 12 21  0 14 29 854  3.7057    164.60784   1416.69896   1046.03026    -10.16291     41.34500      4.68544    177.8    149.5      6.4     -6.9    525.2     80.8    170.9    170.9 170.94296 170.94296   0.00000   0.00000   0.00000   0.00000   3.07834  -0.40992  55.87481
     232 2002 12 21  0 14 33 559  3.7052    164.63799   1417.35465   1046.23984     -8.25258     42.27988      4.75983    177.8    149.5      6.4     -7.0    525.2     80.8    170.9    170.9 170.94296 170.94296   0.00000   0.00000   0.00000   0.00000   3.07807  -0.40992  55.84133
     233 2002 12 21  0 14 37 264  3.7048    164.66813   1417.99918   1046.44991     -7.48438     43.20523      4.83317    177.8    149.5      6.4     -7.0    525.1     80.8    170.9    170.9 170.94296 170.94296   0.00000   0.00000   0.00000   0.00000   3.07780  -0.40992  55.85553
     234 2002 12 21  0 14 40 968  3.7043    164.69825   1418.63131   1046.66015     -7.44156     44.11899      4.90542    177.8    149.5      6.4     -7.0    525.1     80.9    170.9    170.9 170.94296 170.94296   0.00000   0.00000   0.00000   0.00000   3.07753  -0.40992  55.82149
     235 2002 12 21  0 14 44 672  3.7039    164.72833   1419.24998   1046.87015     -7.39566     45.01842      4.97660    177.8    149.5      6.4     -7.0    525.1     80.9    170.9    170.9 170.94296 170.94296   0.00000   0.00000   0.00000   0.00000   3.07726  -0.40992  55.83576
     236 2002 12 21  0 14 48 375  3.7034    164.75840   1419.85430   1047.07956     -7.34761     45.90150      5.04675    177.8    149.5      6.3     -7.0    525.1     80.9    170.9    170.9 170.94296 170.94296   0.00000   0.00000   0.00000   0.00000   3.07699  -0.40992  55.80260
     237 2002 12 21  0 14 52  78  3.7030    164.78846   1420.44351   1047.28798     -7.29787     46.76637      5.11575    177.8    149.5      6.3     -7.1    525.1     81.0    170.9    170.9 170.94296 170.94296   0.00000   0.00000   0.00000   0.00000   3.07672  -0.40992  55.81709
     238 2002 12 21  0 14 55 781  3.7025    164.81853   1421.01703   1047.49504     -7.24715     47.61141      5.18352    177.8    149.5      6.3     -7.1    525.1     81.0    170.9    170.9 170.94296 170.94296   0.00000   0.00000   0.00000   0.00000   3.07645  -0.40992  55.78335
     239 2002 12 21  0 14 59 483  3.7021    164.84863   1421.57442   1047.70035     -7.19612     48.43530      5.24987    177.8    149.5      6.3     -7.1    525.0     81.1    170.9    170.9 170.94296 170.94296   0.00000   0.00000   0.00000   0.00000   3.07618  -0.40992  55.79791
