GITM2 log file
## Inputs from UAM.in
# Resart= F
# Eddy coef:   100.000 Eddy P0:     0.010 Eddy P1:     0.005 Eddy Scaling:     1.000
# Statistical Models Only:  F Apex:  F
# EUV Data:  F
# AMIE: none           
none                                                                                                
# Solar Heating:  T Joule Heating:  F Auroral Heating:  F
# NO Cooling:  F O Cooling:  F
# Conduction:  T Turbulent Conduction:  F Updated Turbulent Conduction:  F
# Pressure Grad:  T Ion Drag:  F Neutral Drag:  T
# Viscosity:  T Coriolis:  T Gravity:  T
# Ion Chemistry:  F Ion Advection:  F Neutral Chemistry:  F
 
#START
   iStep yyyy mm dd hh mm ss  ms      dt min(T) max(T) mean(T) min(VV) max(VV) mean(VV) F107 F107A Bx By Bz Vx HPI
       2 2002 12 21 12  0  5 323  5.3235    166.50113    170.11988    167.96788     -6.00039     25.00000     -0.92259    150.0    150.0      0.0      0.0    -20.0    400.0      1.0
       3 2002 12 21 12  0 10 621  5.2980    166.42394    190.07255    168.18590    -10.91509     25.00000     -2.69134    150.0    150.0      0.0      0.0    -20.0    400.0      1.0
       4 2002 12 21 12  0 15 890  5.2688    166.31581    204.23764    168.32556    -15.60157     25.00000     -4.77640    150.0    150.0      0.0      0.0    -20.0    400.0      1.0
       5 2002 12 21 12  0 21 135  5.2451    166.17729    214.32608    168.41794    -20.65713     25.00000     -6.83886    150.0    150.0      0.0      0.0    -20.0    400.0      1.0
       6 2002 12 21 12  0 26 351  5.2164    166.00841    221.29390    168.48543    -25.00000     25.00000     -8.89102    150.0    150.0      0.0      0.0    -20.0    400.0      1.0
       7 2002 12 21 12  0 31 541  5.1901    165.80362    226.25461    168.52484    -25.00000     25.00000    -10.72117    150.0    150.0      0.0      0.0    -20.0    400.0      1.0
       8 2002 12 21 12  0 36 707  5.1653    165.56741    230.64646    168.54373    -25.00000     25.00000    -12.08503    150.0    150.0      0.0      0.0    -20.0    400.0      1.0
       9 2002 12 21 12  0 41 849  5.1418    165.30571    234.62256    168.54768    -25.00000     25.00000    -12.87344    150.0    150.0      0.0      0.0    -20.0    400.0      1.0
      10 2002 12 21 12  0 46 964  5.1157    165.08501    237.70032    168.54305    -25.00000     25.00000    -13.37724    150.0    150.0      0.0      0.0    -20.0    400.0      1.0
      11 2002 12 21 12  0 52  55  5.0908    164.86338    240.15294    168.53326    -25.00000     25.00000    -13.66699    150.0    150.0      0.0      0.0    -20.0    400.0      1.0
      12 2002 12 21 12  0 57 123  5.0683    164.64256    242.04982    168.52053    -25.00000     25.00000    -13.77700    150.0    150.0      0.0      0.0    -20.0    400.0      1.0
      13 2002 12 21 12  1  2 166  5.0424    164.42306    243.56266    168.50634    -25.00000     25.00000    -13.74488    150.0    150.0      0.0      0.0    -20.0    400.0      1.0
      14 2002 12 21 12  1  7 210  5.0442    164.20662    244.99146    168.49140    -25.00000     25.00000    -13.64448    150.0    150.0      0.0      0.0    -20.0    400.0      1.0
      15 2002 12 21 12  1 12 259  5.0491    163.99026    246.40190    168.47448    -25.00000     25.00000    -13.54425    150.0    150.0      0.0      0.0    -20.0    400.0      1.0
      16 2002 12 21 12  1 17 315  5.0559    163.77392    247.38780    168.45324    -25.00000     25.00000    -13.42102    150.0    150.0      0.0      0.0    -20.0    400.0      1.0
      17 2002 12 21 12  1 22 373  5.0584    163.55780    248.00339    168.42837    -25.00000     25.00000    -13.28258    150.0    150.0      0.0      0.0    -20.0    400.0      1.0
      18 2002 12 21 12  1 27 434  5.0610    163.34058    248.20690    168.40139    -25.00000     25.00000    -13.14139    150.0    150.0      0.0      0.0    -20.0    400.0      1.0
      19 2002 12 21 12  1 32 499  5.0647    162.74599    248.30442    168.37542    -25.00000     25.00000    -13.00591    150.0    150.0      0.0      0.0    -20.0    400.0      1.0
      20 2002 12 21 12  1 37 565  5.0660    162.17502    248.91611    168.35150    -25.00000     25.00000    -12.85480    150.0    150.0      0.0      0.0    -20.0    400.0      1.0
      21 2002 12 21 12  1 42 633  5.0678    161.75032    249.61924    168.32572    -25.00000     25.00000    -12.68416    150.0    150.0      0.0      0.0    -20.0    400.0      1.0
      22 2002 12 21 12  1 47 705  5.0726    161.46482    250.33177    168.29883    -25.00000     25.00000    -12.52553    150.0    150.0      0.0      0.0    -20.0    400.0      1.0
      23 2002 12 21 12  1 52 778  5.0731    161.21574    250.92654    168.27029    -25.00000     25.00000    -12.35863    150.0    150.0      0.0      0.0    -20.0    400.0      1.0
      24 2002 12 21 12  1 57 854  5.0755    160.88189    251.44256    168.23881    -25.00000     25.00000    -12.17466    150.0    150.0      0.0      0.0    -20.0    400.0      1.0
      25 2002 12 21 12  2  2 934  5.0802    160.57373    251.88574    168.20487    -25.00000     25.00000    -11.98887    150.0    150.0      0.0      0.0    -20.0    400.0      1.0
      26 2002 12 21 12  2  8  15  5.0809    160.17053    252.25182    168.17089    -25.00000     25.00000    -11.81115    150.0    150.0      0.0      0.0    -20.0    400.0      1.0
      27 2002 12 21 12  2 13  99  5.0834    159.75264    252.56635    168.13534    -25.00000     25.00000    -11.63289    150.0    150.0      0.0      0.0    -20.0    400.0      1.0
      28 2002 12 21 12  2 18 185  5.0869    159.36168    252.90516    168.09692    -25.00000     25.00000    -11.44183    150.0    150.0      0.0      0.0    -20.0    400.0      1.0
      29 2002 12 21 12  2 23 274  5.0889    158.99924    253.31537    168.05749    -25.00000     25.00000    -11.25026    150.0    150.0      0.0      0.0    -20.0    400.0      1.0
      30 2002 12 21 12  2 28 365  5.0905    158.73435    253.72331    168.01747    -25.00000     25.00000    -11.07108    150.0    150.0      0.0      0.0    -20.0    400.0      1.0
      31 2002 12 21 12  2 33 457  5.0924    158.55020    254.10627    167.97528    -25.00000     25.00000    -10.89500    150.0    150.0      0.0      0.0    -20.0    400.0      1.0
      32 2002 12 21 12  2 38 552  5.0945    158.45736    254.45416    167.93040    -25.00000     25.00000    -10.71265    150.0    150.0      0.0      0.0    -20.0    400.0      1.0
      33 2002 12 21 12  2 43 649  5.0976    158.37374    254.76313    167.88479    -25.00000     25.00000    -10.54695    150.0    150.0      0.0      0.0    -20.0    400.0      1.0
      34 2002 12 21 12  2 48 750  5.1010    158.25773    255.06364    167.83821    -25.00000     25.00000    -10.38736    150.0    150.0      0.0      0.0    -20.0    400.0      1.0
      35 2002 12 21 12  2 53 853  5.1024    158.11675    255.37374    167.78897    -25.00000     25.00000    -10.23222    150.0    150.0      0.0      0.0    -20.0    400.0      1.0
      36 2002 12 21 12  2 58 958  5.1049    157.93485    255.69667    167.73827    -25.00000     25.00000    -10.06553    150.0    150.0      0.0      0.0    -20.0    400.0      1.0
      37 2002 12 21 12  3  4  63  5.1053    157.77834    256.03432    167.68701    -25.00000     25.00000     -9.90826    150.0    150.0      0.0      0.0    -20.0    400.0      1.0
      38 2002 12 21 12  3  9 171  5.1077    157.56289    256.36103    167.63416    -25.00000     25.00000     -9.76589    150.0    150.0      0.0      0.0    -20.0    400.0      1.0
      39 2002 12 21 12  3 14 281  5.1105    157.32439    256.65373    167.57800    -25.00000     25.00000     -9.60758    150.0    150.0      0.0      0.0    -20.0    400.0      1.0
      40 2002 12 21 12  3 19 394  5.1125    157.06258    256.88940    167.52049    -25.00000     25.00000     -9.46343    150.0    150.0      0.0      0.0    -20.0    400.0      1.0
      41 2002 12 21 12  3 24 512  5.1183    156.79504    257.07830    167.46199    -25.00000     25.00000     -9.32272    150.0    150.0      0.0      0.0    -20.0    400.0      1.0
      42 2002 12 21 12  3 29 632  5.1202    156.54685    257.25574    167.40078    -25.00000     25.00000     -9.18884    150.0    150.0      0.0      0.0    -20.0    400.0      1.0
      43 2002 12 21 12  3 34 755  5.1230    156.39230    257.44105    167.33735    -25.00000     25.00000     -9.05383    150.0    150.0      0.0      0.0    -20.0    400.0      1.0
      44 2002 12 21 12  3 39 882  5.1269    156.35527    257.63619    167.27362    -25.00000     25.00000     -8.92606    150.0    150.0      0.0      0.0    -20.0    400.0      1.0
      45 2002 12 21 12  3 45  13  5.1308    156.27933    257.83651    167.20808    -25.00000     25.00000     -8.80765    150.0    150.0      0.0      0.0    -20.0    400.0      1.0
      46 2002 12 21 12  3 50 146  5.1333    156.16928    258.03825    167.13940    -25.00000     25.00000     -8.68363    150.0    150.0      0.0      0.0    -20.0    400.0      1.0
      47 2002 12 21 12  3 55 282  5.1357    156.03223    258.24206    167.06935    -25.00000     25.00000     -8.56410    150.0    150.0      0.0      0.0    -20.0    400.0      1.0
      48 2002 12 21 12  4  0 418  5.1359    155.82829    258.44453    166.99858    -25.00000     25.00000     -8.45502    150.0    150.0      0.0      0.0    -20.0    400.0      1.0
      49 2002 12 21 12  4  5 556  5.1387    155.58732    258.63767    166.92586    -25.00000     25.00000     -8.34893    150.0    150.0      0.0      0.0    -20.0    400.0      1.0
      50 2002 12 21 12  4 10 696  5.1391    155.32649    258.80985    166.85046    -25.00000     25.00000     -8.23952    150.0    150.0      0.0      0.0    -20.0    400.0      1.0
      51 2002 12 21 12  4 15 836  5.1409    155.07147    258.96111    166.77500    -25.00000     25.00000     -8.13761    150.0    150.0      0.0      0.0    -20.0    400.0      1.0
      52 2002 12 21 12  4 20 981  5.1443    154.88364    259.10392    166.69818    -25.00000     25.00000     -8.02855    150.0    150.0      0.0      0.0    -20.0    400.0      1.0
      53 2002 12 21 12  4 26 127  5.1461    154.76060    259.25452    166.61862    -25.00000     25.00000     -7.93324    150.0    150.0      0.0      0.0    -20.0    400.0      1.0
      54 2002 12 21 12  4 31 276  5.1495    154.65617    259.41622    166.53778    -25.00000     25.00000     -7.84029    150.0    150.0      0.0      0.0    -20.0    400.0      1.0
      55 2002 12 21 12  4 36 423  5.1464    154.47821    259.57969    166.45652    -25.00000     25.00000     -7.74433    150.0    150.0      0.0      0.0    -20.0    400.0      1.0
      56 2002 12 21 12  4 41 570  5.1477    154.24893    259.73656    166.37356    -25.00000     25.00000     -7.66498    150.0    150.0      0.0      0.0    -20.0    400.0      1.0
      57 2002 12 21 12  4 46 717  5.1471    154.08260    259.88340    166.28805    -25.00000     25.00000     -7.58292    150.0    150.0      0.0      0.0    -20.0    400.0      1.0
      58 2002 12 21 12  4 51 868  5.1510    153.76744    260.02188    166.20223    -25.00000     25.00000     -7.49216    150.0    150.0      0.0      0.0    -20.0    400.0      1.0
      59 2002 12 21 12  4 57  21  5.1522    153.46155    260.15702    166.11494    -25.00000     25.00000     -7.41148    150.0    150.0      0.0      0.0    -20.0    400.0      1.0
      60 2002 12 21 12  5  2 177  5.1561    153.17748    260.29270    166.02512    -25.00000     25.00000     -7.33149    150.0    150.0      0.0      0.0    -20.0    400.0      1.0
      61 2002 12 21 12  5  7 334  5.1575    152.91613    260.42854    165.93435    -25.00000     25.00000     -7.23959    150.0    150.0      0.0      0.0    -20.0    400.0      1.0
      62 2002 12 21 12  5 12 493  5.1586    152.74353    260.55868    165.84381    -25.00000     25.00000     -7.13529    150.0    150.0      0.0      0.0    -20.0    400.0      1.0
      63 2002 12 21 12  5 17 654  5.1615    152.66830    260.68082    165.75112    -25.00000     25.00000     -7.01783    150.0    150.0      0.0      0.0    -20.0    400.0      1.0
      64 2002 12 21 12  5 22 816  5.1612    152.67382    260.79469    165.65460    -25.00000     25.00000     -6.94247    150.0    150.0      0.0      0.0    -20.0    400.0      1.0
      65 2002 12 21 12  5 27 980  5.1641    152.53987    260.90205    165.55828    -25.00000     25.00000     -6.82527    150.0    150.0      0.0      0.0    -20.0    400.0      1.0
      66 2002 12 21 12  5 33 146  5.1660    152.38986    261.00004    165.46022    -25.00000     25.00000     -6.72756    150.0    150.0      0.0      0.0    -20.0    400.0      1.0
      67 2002 12 21 12  5 38 314  5.1677    152.33033    261.09170    165.35928    -25.00000     25.00000     -6.62950    150.0    150.0      0.0      0.0    -20.0    400.0      1.0
      68 2002 12 21 12  5 43 481  5.1678    152.26533    261.18252    165.25538    -25.00000     25.00000     -6.51321    150.0    150.0      0.0      0.0    -20.0    400.0      1.0
      69 2002 12 21 12  5 48 650  5.1689    151.77892    261.27863    165.14995    -25.00000     25.00000     -6.44276    150.0    150.0      0.0      0.0    -20.0    400.0      1.0
      70 2002 12 21 12  5 53 817  5.1672    151.62546    261.37951    165.04329    -25.00000     25.00000     -6.33663    150.0    150.0      0.0      0.0    -20.0    400.0      1.0
      71 2002 12 21 12  5 58 988  5.1703    150.72290    261.48211    164.93267    -25.00000     25.00000     -6.26894    150.0    150.0      0.0      0.0    -20.0    400.0      1.0
      72 2002 12 21 12  6  4 159  5.1709    150.59311    261.58128    164.82201    -25.00000     25.00000     -6.18196    150.0    150.0      0.0      0.0    -20.0    400.0      1.0
      73 2002 12 21 12  6  9 331  5.1728    150.11831    261.67334    164.71115    -25.00000     25.00000     -6.11772    150.0    150.0      0.0      0.0    -20.0    400.0      1.0
      74 2002 12 21 12  6 14 504  5.1726    149.96803    261.75296    164.59770    -25.00000     25.00000     -6.06981    150.0    150.0      0.0      0.0    -20.0    400.0      1.0
      75 2002 12 21 12  6 19 677  5.1732    149.76232    261.82301    164.48259    -25.00000     25.00000     -5.99440    150.0    150.0      0.0      0.0    -20.0    400.0      1.0
      76 2002 12 21 12  6 24 853  5.1756    149.37833    261.88448    164.36786    -25.00000     25.00000     -5.98092    150.0    150.0      0.0      0.0    -20.0    400.0      1.0
      77 2002 12 21 12  6 30  28  5.1753    149.43309    261.94267    164.25333    -25.00000     25.00000     -5.92169    150.0    150.0      0.0      0.0    -20.0    400.0      1.0
      78 2002 12 21 12  6 35 204  5.1763    148.94339    262.00053    164.13608    -25.00000     25.00000     -5.92202    150.0    150.0      0.0      0.0    -20.0    400.0      1.0
      79 2002 12 21 12  6 40 383  5.1789    148.83802    262.06335    164.01946    -25.00000     25.00000     -5.89701    150.0    150.0      0.0      0.0    -20.0    400.0      1.0
      80 2002 12 21 12  6 45 564  5.1804    148.31811    262.11869    163.90177    -25.00000     25.00000     -5.88131    150.0    150.0      0.0      0.0    -20.0    400.0      1.0
      81 2002 12 21 12  6 50 745  5.1811    147.93622    262.16928    163.78241    -25.00000     25.00000     -5.88560    150.0    150.0      0.0      0.0    -20.0    400.0      1.0
      82 2002 12 21 12  6 55 926  5.1815    147.66698    262.21752    163.66300    -25.00000     25.00000     -5.87862    150.0    150.0      0.0      0.0    -20.0    400.0      1.0
      83 2002 12 21 12  7  1 109  5.1829    147.17708    262.26378    163.54354    -25.00000     25.00000     -5.90225    150.0    150.0      0.0      0.0    -20.0    400.0      1.0
      84 2002 12 21 12  7  6 293  5.1842    147.08747    262.30807    163.42467    -25.00000     25.00000     -5.89384    150.0    150.0      0.0      0.0    -20.0    400.0      1.0
      85 2002 12 21 12  7 11 479  5.1861    146.94962    262.35112    163.30480    -25.00000     25.00000     -5.90318    150.0    150.0      0.0      0.0    -20.0    400.0      1.0
      86 2002 12 21 12  7 16 668  5.1884    146.85841    262.39480    163.18497    -25.00000     25.00000     -5.90761    150.0    150.0      0.0      0.0    -20.0    400.0      1.0
      87 2002 12 21 12  7 21 855  5.1874    146.89410    262.44144    163.06604    -25.00000     25.00000     -5.92796    150.0    150.0      0.0      0.0    -20.0    400.0      1.0
      88 2002 12 21 12  7 27  44  5.1883    147.05946    262.49002    162.94859    -25.00000     25.00000     -5.95065    150.0    150.0      0.0      0.0    -20.0    400.0      1.0
      89 2002 12 21 12  7 32 233  5.1894    146.39207    262.53803    162.83071    -25.00000     25.00000     -5.96710    150.0    150.0      0.0      0.0    -20.0    400.0      1.0
      90 2002 12 21 12  7 37 423  5.1900    146.02262    262.58513    162.71270    -25.00000     25.00000     -6.00939    150.0    150.0      0.0      0.0    -20.0    400.0      1.0
      91 2002 12 21 12  7 42 617  5.1945    145.96700    262.62206    162.59588    -25.00000     25.00000     -6.03831    150.0    150.0      0.0      0.0    -20.0    400.0      1.0
      92 2002 12 21 12  7 47 812  5.1950    145.50420    262.64885    162.47799    -25.00000     25.00000     -6.05968    150.0    150.0      0.0      0.0    -20.0    400.0      1.0
      93 2002 12 21 12  7 53   8  5.1951    145.34527    262.66957    162.36121    -25.00000     25.00000     -6.10628    150.0    150.0      0.0      0.0    -20.0    400.0      1.0
      94 2002 12 21 12  7 58 203  5.1950    145.44538    262.68998    162.24728    -25.00000     25.00000     -6.15666    150.0    150.0      0.0      0.0    -20.0    400.0      1.0
      95 2002 12 21 12  8  3 398  5.1952    145.10876    262.71115    162.13273    -25.00000     25.00000     -6.20611    150.0    150.0      0.0      0.0    -20.0    400.0      1.0
      96 2002 12 21 12  8  8 596  5.1982    145.14009    262.73305    162.01857    -25.00000     25.00000     -6.25366    150.0    150.0      0.0      0.0    -20.0    400.0      1.0
      97 2002 12 21 12  8 13 795  5.1988    145.04837    262.75598    161.90593    -25.00000     25.00000     -6.32309    150.0    150.0      0.0      0.0    -20.0    400.0      1.0
      98 2002 12 21 12  8 18 994  5.1995    144.68637    262.78054    161.79540    -25.00000     25.00000     -6.39100    150.0    150.0      0.0      0.0    -20.0    400.0      1.0
      99 2002 12 21 12  8 24 194  5.2000    144.41337    262.80935    161.68638    -25.00000     25.00000     -6.46024    150.0    150.0      0.0      0.0    -20.0    400.0      1.0
     100 2002 12 21 12  8 29 395  5.2008    144.13899    262.84021    161.57744    -25.00000     25.00000     -6.54210    150.0    150.0      0.0      0.0    -20.0    400.0      1.0
     101 2002 12 21 12  8 34 600  5.2046    143.77293    262.86632    161.46887    -25.00000     25.00000     -6.64821    150.0    150.0      0.0      0.0    -20.0    400.0      1.0
     102 2002 12 21 12  8 39 805  5.2053    143.58847    262.88732    161.36098    -25.00000     25.00000     -6.75256    150.0    150.0      0.0      0.0    -20.0    400.0      1.0
     103 2002 12 21 12  8 45   8  5.2035    143.34555    262.90235    161.25256    -25.00000     25.00000     -6.85039    150.0    150.0      0.0      0.0    -20.0    400.0      1.0
     104 2002 12 21 12  8 50 214  5.2054    143.06492    262.91174    161.14546    -25.00000     25.00000     -6.95377    150.0    150.0      0.0      0.0    -20.0    400.0      1.0
     105 2002 12 21 12  8 55 417  5.2033    142.81108    262.91645    161.04214    -25.00000     25.00000     -7.07421    150.0    150.0      0.0      0.0    -20.0    400.0      1.0
     106 2002 12 21 12  9  0 623  5.2056    142.47696    262.91445    160.93834    -25.00000     25.00000     -7.20025    150.0    150.0      0.0      0.0    -20.0    400.0      1.0
     107 2002 12 21 12  9  5 829  5.2064    142.12716    262.90712    160.83365    -25.00000     25.00000     -7.32231    150.0    150.0      0.0      0.0    -20.0    400.0      1.0
     108 2002 12 21 12  9 11  38  5.2090    141.94599    262.88693    160.73214    -25.00000     25.00000     -7.45121    150.0    150.0      0.0      0.0    -20.0    400.0      1.0
     109 2002 12 21 12  9 16 251  5.2124    141.76752    262.87406    160.63263    -25.00000     25.00000     -7.58082    150.0    150.0      0.0      0.0    -20.0    400.0      1.0
     110 2002 12 21 12  9 21 464  5.2135    141.41044    262.88098    160.53236    -25.00000     25.00000     -7.70823    150.0    150.0      0.0      0.0    -20.0    400.0      1.0
     111 2002 12 21 12  9 26 677  5.2132    141.10318    262.90807    160.43472    -25.00000     25.00000     -7.81688    150.0    150.0      0.0      0.0    -20.0    400.0      1.0
     112 2002 12 21 12  9 31 893  5.2158    140.80294    262.94500    160.33746    -25.00000     25.00000     -7.90689    150.0    150.0      0.0      0.0    -20.0    400.0      1.0
     113 2002 12 21 12  9 37 109  5.2153    140.47586    262.98106    160.23798    -25.00000     25.00000     -7.96984    150.0    150.0      0.0      0.0    -20.0    400.0      1.0
     114 2002 12 21 12  9 42 327  5.2189    140.29454    263.01561    160.13881    -25.00000     25.00000     -8.02116    150.0    150.0      0.0      0.0    -20.0    400.0      1.0
     115 2002 12 21 12  9 47 548  5.2204    140.03876    263.05010    160.04185    -25.00000     25.00000     -8.06414    150.0    150.0      0.0      0.0    -20.0    400.0      1.0
     116 2002 12 21 12  9 52 769  5.2207    139.75118    263.07589    159.94475    -25.00000     25.00000     -8.09917    150.0    150.0      0.0      0.0    -20.0    400.0      1.0
     117 2002 12 21 12  9 57 990  5.2212    139.65769    263.08512    159.84640    -25.00000     25.00000     -8.13320    150.0    150.0      0.0      0.0    -20.0    400.0      1.0
     118 2002 12 21 12 10  3 210  5.2201    139.55057    263.08525    159.74837    -25.00000     25.00000     -8.15126    150.0    150.0      0.0      0.0    -20.0    400.0      1.0
     119 2002 12 21 12 10  8 431  5.2210    139.35633    263.05217    159.65076    -25.00000     25.00000     -8.13501    150.0    150.0      0.0      0.0    -20.0    400.0      1.0
     120 2002 12 21 12 10 13 654  5.2233    139.10872    262.98753    159.55363    -25.00000     25.00000     -8.12471    150.0    150.0      0.0      0.0    -20.0    400.0      1.0
     121 2002 12 21 12 10 18 879  5.2246    138.89073    262.90203    159.45657    -25.00000     25.00000     -8.10913    150.0    150.0      0.0      0.0    -20.0    400.0      1.0
     122 2002 12 21 12 10 24 103  5.2244    138.62210    262.81222    159.36055    -25.00000     25.00000     -8.09358    150.0    150.0      0.0      0.0    -20.0    400.0      1.0
     123 2002 12 21 12 10 29 329  5.2259    138.44843    262.75387    159.26430    -25.00000     25.00000     -8.06399    150.0    150.0      0.0      0.0    -20.0    400.0      1.0
     124 2002 12 21 12 10 34 554  5.2254    138.13368    262.75261    159.16739    -25.00000     25.00000     -8.03208    150.0    150.0      0.0      0.0    -20.0    400.0      1.0
     125 2002 12 21 12 10 39 783  5.2291    137.86054    262.78333    159.06845    -25.00000     25.00000     -8.00035    150.0    150.0      0.0      0.0    -20.0    400.0      1.0
     126 2002 12 21 12 10 45  12  5.2288    137.74994    262.82834    158.96910    -25.00000     25.00000     -7.94408    150.0    150.0      0.0      0.0    -20.0    400.0      1.0
     127 2002 12 21 12 10 50 242  5.2302    137.52848    262.88608    158.87089    -25.00000     25.00000     -7.87277    150.0    150.0      0.0      0.0    -20.0    400.0      1.0
     128 2002 12 21 12 10 55 473  5.2303    137.29698    262.94728    158.77196    -25.00000     25.00000     -7.80126    150.0    150.0      0.0      0.0    -20.0    400.0      1.0
     129 2002 12 21 12 11  0 702  5.2290    136.98461    263.00450    158.67323    -25.00000     25.00000     -7.73742    150.0    150.0      0.0      0.0    -20.0    400.0      1.0
     130 2002 12 21 12 11  5 933  5.2314    136.61991    263.04449    158.57398    -25.00000     25.00000     -7.66140    150.0    150.0      0.0      0.0    -20.0    400.0      1.0
     131 2002 12 21 12 11 11 164  5.2306    136.38038    263.06192    158.47627    -25.00000     25.00000     -7.60273    150.0    150.0      0.0      0.0    -20.0    400.0      1.0
     132 2002 12 21 12 11 16 397  5.2333    136.22297    263.05387    158.38016    -25.00000     25.00000     -7.55905    150.0    150.0      0.0      0.0    -20.0    400.0      1.0
     133 2002 12 21 12 11 21 633  5.2362    135.89671    263.00631    158.28571    -25.00000     25.00000     -7.48082    150.0    150.0      0.0      0.0    -20.0    400.0      1.0
     134 2002 12 21 12 11 26 871  5.2378    135.74981    262.96233    158.19199    -25.00000     25.00000     -7.43966    150.0    150.0      0.0      0.0    -20.0    400.0      1.0
     135 2002 12 21 12 11 32 108  5.2367    135.42011    262.96397    158.09897    -25.00000     25.00000     -7.39291    150.0    150.0      0.0      0.0    -20.0    400.0      1.0
     136 2002 12 21 12 11 37 346  5.2387    135.05480    262.99104    158.00675    -25.00000     25.00000     -7.31964    150.0    150.0      0.0      0.0    -20.0    400.0      1.0
     137 2002 12 21 12 11 42 584  5.2380    134.75798    263.03926    157.91400    -25.00000     25.00000     -7.25414    150.0    150.0      0.0      0.0    -20.0    400.0      1.0
     138 2002 12 21 12 11 47 826  5.2412    134.61264    263.10976    157.82209    -25.00000     25.00000     -7.15272    150.0    150.0      0.0      0.0    -20.0    400.0      1.0
     139 2002 12 21 12 11 53  67  5.2416    133.76939    263.18999    157.72998    -25.00000     25.00000     -7.06816    150.0    150.0      0.0      0.0    -20.0    400.0      1.0
     140 2002 12 21 12 11 58 306  5.2393    133.39148    263.26711    157.64012    -25.00000     25.00000     -6.96996    150.0    150.0      0.0      0.0    -20.0    400.0      1.0
     141 2002 12 21 12 12  3 548  5.2412    133.06337    263.33359    157.54921    -25.00000     25.00000     -6.90961    150.0    150.0      0.0      0.0    -20.0    400.0      1.0
     142 2002 12 21 12 12  8 787  5.2393    132.21187    263.38882    157.45832    -25.00000     25.00000     -6.83577    150.0    150.0      0.0      0.0    -20.0    400.0      1.0
     143 2002 12 21 12 12 14  28  5.2409    132.01088    263.43469    157.36937    -25.00000     25.00000     -6.76769    150.0    150.0      0.0      0.0    -20.0    400.0      1.0
     144 2002 12 21 12 12 19 270  5.2423    131.72031    263.47320    157.28164    -25.00000     25.00000     -6.74155    150.0    150.0      0.0      0.0    -20.0    400.0      1.0
     145 2002 12 21 12 12 24 514  5.2434    130.98434    263.50721    157.19600    -25.00000     25.00000     -6.65020    150.0    150.0      0.0      0.0    -20.0    400.0      1.0
     146 2002 12 21 12 12 29 759  5.2454    130.86924    263.53754    157.10901    -25.00000     25.00000     -6.62469    150.0    150.0      0.0      0.0    -20.0    400.0      1.0
     147 2002 12 21 12 12 35   6  5.2468    130.68673    263.56745    157.02235    -25.00000     25.00000     -6.60384    150.0    150.0      0.0      0.0    -20.0    400.0      1.0
     148 2002 12 21 12 12 40 251  5.2452    130.15182    263.60188    156.93798    -25.00000     25.00000     -6.54253    150.0    150.0      0.0      0.0    -20.0    400.0      1.0
     149 2002 12 21 12 12 45 497  5.2465    129.95262    263.64237    156.85243    -25.00000     25.00000     -6.52158    150.0    150.0      0.0      0.0    -20.0    400.0      1.0
     150 2002 12 21 12 12 50 745  5.2473    129.76184    263.68760    156.76644    -25.00000     25.00000     -6.46897    150.0    150.0      0.0      0.0    -20.0    400.0      1.0
     151 2002 12 21 12 12 55 993  5.2484    129.48047    263.73800    156.67991    -25.00000     25.00000     -6.41015    150.0    150.0      0.0      0.0    -20.0    400.0      1.0
     152 2002 12 21 12 13  1 242  5.2488    129.12692    263.79231    156.59400    -25.00000     25.00000     -6.38657    150.0    150.0      0.0      0.0    -20.0    400.0      1.0
     153 2002 12 21 12 13  6 490  5.2483    128.88632    263.84806    156.50742    -25.00000     25.00000     -6.34865    150.0    150.0      0.0      0.0    -20.0    400.0      1.0
     154 2002 12 21 12 13 11 738  5.2479    128.66725    263.90295    156.42022    -25.00000     25.00000     -6.30137    150.0    150.0      0.0      0.0    -20.0    400.0      1.0
     155 2002 12 21 12 13 16 987  5.2493    128.27195    263.95492    156.33453    -25.00000     25.00000     -6.25431    150.0    150.0      0.0      0.0    -20.0    400.0      1.0
     156 2002 12 21 12 13 22 237  5.2494    128.02478    264.00442    156.24903    -25.00000     25.00000     -6.26094    150.0    150.0      0.0      0.0    -20.0    400.0      1.0
     157 2002 12 21 12 13 27 488  5.2510    127.68039    264.05462    156.16181    -25.00000     25.00000     -6.22444    150.0    150.0      0.0      0.0    -20.0    400.0      1.0
     158 2002 12 21 12 13 32 741  5.2533    127.35785    264.10720    156.07326    -25.00000     25.00000     -6.17782    150.0    150.0      0.0      0.0    -20.0    400.0      1.0
     159 2002 12 21 12 13 37 996  5.2546    127.13699    264.16391    155.98486    -25.00000     25.00000     -6.18471    150.0    150.0      0.0      0.0    -20.0    400.0      1.0
     160 2002 12 21 12 13 43 249  5.2535    127.06392    264.22194    155.89627    -25.00000     25.00000     -6.15607    150.0    150.0      0.0      0.0    -20.0    400.0      1.0
     161 2002 12 21 12 13 48 504  5.2545    126.83836    264.27898    155.80728    -25.00000     25.00000     -6.13174    150.0    150.0      0.0      0.0    -20.0    400.0      1.0
     162 2002 12 21 12 13 53 757  5.2537    126.66856    264.33398    155.71641    -25.00000     25.00000     -6.11139    150.0    150.0      0.0      0.0    -20.0    400.0      1.0
     163 2002 12 21 12 13 59  13  5.2555    126.54805    264.38651    155.62608    -25.00000     25.00000     -6.10566    150.0    150.0      0.0      0.0    -20.0    400.0      1.0
     164 2002 12 21 12 14  4 269  5.2566    126.29943    264.43646    155.53407    -25.00000     25.00000     -6.10517    150.0    150.0      0.0      0.0    -20.0    400.0      1.0
     165 2002 12 21 12 14  9 525  5.2557    126.39592    264.48400    155.43970    -25.00000     25.00000     -6.10441    150.0    150.0      0.0      0.0    -20.0    400.0      1.0
     166 2002 12 21 12 14 14 781  5.2558    126.26838    264.53033    155.34781    -25.00000     25.00000     -6.10729    150.0    150.0      0.0      0.0    -20.0    400.0      1.0
     167 2002 12 21 12 14 20  36  5.2547    125.98813    264.57462    155.25519    -25.00000     25.00000     -6.12162    150.0    150.0      0.0      0.0    -20.0    400.0      1.0
     168 2002 12 21 12 14 25 291  5.2552    126.03496    264.61945    155.15937    -25.00000     25.00000     -6.17280    150.0    150.0      0.0      0.0    -20.0    400.0      1.0
     169 2002 12 21 12 14 30 548  5.2567    125.97161    264.67124    155.06178    -25.00000     25.00000     -6.20505    150.0    150.0      0.0      0.0    -20.0    400.0      1.0
     170 2002 12 21 12 14 35 805  5.2575    125.59263    264.72950    154.96295    -25.00000     25.00000     -6.19936    150.0    150.0      0.0      0.0    -20.0    400.0      1.0
     171 2002 12 21 12 14 41  63  5.2583    125.21677    264.78324    154.86321    -25.00000     25.00000     -6.28094    150.0    150.0      0.0      0.0    -20.0    400.0      1.0
     172 2002 12 21 12 14 46 321  5.2580    124.80336    264.83190    154.76386    -25.00000     25.00000     -6.31367    150.0    150.0      0.0      0.0    -20.0    400.0      1.0
     173 2002 12 21 12 14 51 580  5.2580    124.41615    264.87520    154.66286    -25.00000     25.00000     -6.30065    150.0    150.0      0.0      0.0    -20.0    400.0      1.0
     174 2002 12 21 12 14 56 837  5.2573    124.13361    264.91109    154.56045    -25.00000     25.00000     -6.36568    150.0    150.0      0.0      0.0    -20.0    400.0      1.0
     175 2002 12 21 12 15  2  96  5.2587    123.73053    264.94834    154.45948    -25.00000     25.00000     -6.42136    150.0    150.0      0.0      0.0    -20.0    400.0      1.0
     176 2002 12 21 12 15  7 355  5.2590    123.41598    264.97759    154.36137    -25.00000     25.00000     -6.45944    150.0    150.0      0.0      0.0    -20.0    400.0      1.0
     177 2002 12 21 12 15 12 614  5.2594    123.14680    265.26053    154.26162    -25.00000     25.00000     -6.54838    150.0    150.0      0.0      0.0    -20.0    400.0      1.0
     178 2002 12 21 12 15 17 873  5.2586    122.74609    265.41501    154.16445    -25.00000     25.00000     -6.59738    150.0    150.0      0.0      0.0    -20.0    400.0      1.0
     179 2002 12 21 12 15 23 131  5.2588    122.40591    265.52210    154.06559    -25.00000     25.00000     -6.68277    150.0    150.0      0.0      0.0    -20.0    400.0      1.0
     180 2002 12 21 12 15 28 391  5.2594    122.11842    265.59033    153.96588    -25.00000     25.00000     -6.72485    150.0    150.0      0.0      0.0    -20.0    400.0      1.0
     181 2002 12 21 12 15 33 650  5.2594    121.79764    265.65803    153.86391    -25.00000     25.00000     -6.76267    150.0    150.0      0.0      0.0    -20.0    400.0      1.0
     182 2002 12 21 12 15 38 910  5.2598    121.51859    265.72785    153.76422    -25.00000     25.00000     -6.83337    150.0    150.0      0.0      0.0    -20.0    400.0      1.0
     183 2002 12 21 12 15 44 171  5.2607    121.21477    265.78879    153.66719    -25.00000     25.00000     -6.88861    150.0    150.0      0.0      0.0    -20.0    400.0      1.0
     184 2002 12 21 12 15 49 432  5.2615    120.89150    265.83940    153.57301    -25.00000     25.00000     -6.93476    150.0    150.0      0.0      0.0    -20.0    400.0      1.0
     185 2002 12 21 12 15 54 693  5.2606    120.57759    265.88622    153.47738    -25.00000     25.00000     -7.04261    150.0    150.0      0.0      0.0    -20.0    400.0      1.0
     186 2002 12 21 12 15 59 953  5.2604    120.23540    265.92751    153.38175    -25.00000     25.00000     -7.11034    150.0    150.0      0.0      0.0    -20.0    400.0      1.0
     187 2002 12 21 12 16  5 214  5.2608    119.94887    265.95586    153.28560    -25.00000     25.00000     -7.18276    150.0    150.0      0.0      0.0    -20.0    400.0      1.0
     188 2002 12 21 12 16 10 475  5.2607    119.65958    265.96814    153.19680    -25.00000     25.00000     -7.23610    150.0    150.0      0.0      0.0    -20.0    400.0      1.0
     189 2002 12 21 12 16 15 736  5.2611    119.24081    265.96840    153.11358    -25.00000     25.00000     -7.31810    150.0    150.0      0.0      0.0    -20.0    400.0      1.0
     190 2002 12 21 12 16 20 997  5.2611    119.01276    265.98165    153.03345    -25.00000     25.00000     -7.37960    150.0    150.0      0.0      0.0    -20.0    400.0      1.0
     191 2002 12 21 12 16 26 258  5.2609    119.36197    266.01440    152.95258    -25.00000     25.00000     -7.40594    150.0    150.0      0.0      0.0    -20.0    400.0      1.0
     192 2002 12 21 12 16 31 519  5.2608    118.92457    266.04904    152.87067    -25.00000     25.00000     -7.39883    150.0    150.0      0.0      0.0    -20.0    400.0      1.0
     193 2002 12 21 12 16 36 779  5.2609    118.88913    266.08048    152.79067    -25.00000     25.00000     -7.38027    150.0    150.0      0.0      0.0    -20.0    400.0      1.0
     194 2002 12 21 12 16 42  41  5.2614    119.46701    266.11399    152.71383    -25.00000     25.00000     -7.33966    150.0    150.0      0.0      0.0    -20.0    400.0      1.0
     195 2002 12 21 12 16 47 299  5.2583    119.33487    266.14892    152.64256    -25.00000     25.00000     -7.28191    150.0    150.0      0.0      0.0    -20.0    400.0      1.0
     196 2002 12 21 12 16 52 531  5.2317    119.33763    266.18167    152.57249    -25.00000     25.00000     -7.24553    150.0    150.0      0.0      0.0    -20.0    400.0      1.0
     197 2002 12 21 12 16 57 757  5.2263    119.73180    266.20753    152.50233    -25.00000     25.00000     -7.24468    150.0    150.0      0.0      0.0    -20.0    400.0      1.0
     198 2002 12 21 12 17  2 958  5.2011    120.27021    266.21620    152.43048    -25.00000     25.00000     -7.23437    150.0    150.0      0.0      0.0    -20.0    400.0      1.0
     199 2002 12 21 12 17  8 155  5.1963    120.23569    266.20431    152.36249    -25.00000     25.00000     -7.24622    150.0    150.0      0.0      0.0    -20.0    400.0      1.0
     200 2002 12 21 12 17 13 336  5.1813    119.35172    266.19202    152.30576    -25.00000     25.00000     -7.29097    150.0    150.0      0.0      0.0    -20.0    400.0      1.0
     201 2002 12 21 12 17 18 518  5.1819    118.38110    266.19733    152.25469    -25.00000     25.00000     -7.31442    150.0    150.0      0.0      0.0    -20.0    400.0      1.0
     202 2002 12 21 12 17 23 683  5.1656    117.76948    266.21456    152.21083    -25.00000     25.00000     -7.33584    150.0    150.0      0.0      0.0    -20.0    400.0      1.0
     203 2002 12 21 12 17 28 846  5.1623    117.54560    266.23848    152.16717    -25.00000     25.00000     -7.36354    150.0    150.0      0.0      0.0    -20.0    400.0      1.0
     204 2002 12 21 12 17 34   3  5.1571    116.70316    266.27064    152.12398    -25.00000     25.00000     -7.38984    150.0    150.0      0.0      0.0    -20.0    400.0      1.0
     205 2002 12 21 12 17 39 158  5.1553    116.03177    266.30216    152.08182    -25.00000     25.00000     -7.37698    150.0    150.0      0.0      0.0    -20.0    400.0      1.0
     206 2002 12 21 12 17 44 315  5.1565    115.84232    266.32772    152.04396    -25.00000     25.00000     -7.39848    150.0    150.0      0.0      0.0    -20.0    400.0      1.0
     207 2002 12 21 12 17 49 460  5.1457    115.57293    266.34645    152.01129    -25.00000     25.00000     -7.39703    150.0    150.0      0.0      0.0    -20.0    400.0      1.0
     208 2002 12 21 12 17 54 621  5.1602    114.89381    266.36367    151.98551    -25.00000     25.00000     -7.44936    150.0    150.0      0.0      0.0    -20.0    400.0      1.0
     209 2002 12 21 12 17 59 776  5.1553    114.73104    266.38168    151.96476    -25.00000     25.00000     -7.47248    150.0    150.0      0.0      0.0    -20.0    400.0      1.0
     210 2002 12 21 12 18  4 939  5.1636    114.53666    266.40062    151.94479    -25.00000     25.00000     -7.50064    150.0    150.0      0.0      0.0    -20.0    400.0      1.0
     211 2002 12 21 12 18 10  86  5.1470    114.23447    266.41929    151.93131    -25.00000     25.00000     -7.55919    150.0    150.0      0.0      0.0    -20.0    400.0      1.0
     212 2002 12 21 12 18 15 244  5.1578    114.08212    266.43445    151.91619    -25.00000     25.00000     -7.60645    150.0    150.0      0.0      0.0    -20.0    400.0      1.0
     213 2002 12 21 12 18 20 392  5.1473    113.83658    266.43524    151.91100    -25.00000     25.00000     -7.66665    150.0    150.0      0.0      0.0    -20.0    400.0      1.0
     214 2002 12 21 12 18 25 550  5.1582    113.66563    266.42842    151.91724    -25.00000     25.00000     -7.71471    150.0    150.0      0.0      0.0    -20.0    400.0      1.0
     215 2002 12 21 12 18 30 719  5.1697    113.73008    266.42685    151.93032    -25.00000     25.00000     -7.75359    150.0    150.0      0.0      0.0    -20.0    400.0      1.0
     216 2002 12 21 12 18 35 895  5.1759    113.42219    266.43800    151.95046    -25.00000     25.00000     -7.78459    150.0    150.0      0.0      0.0    -20.0    400.0      1.0
     217 2002 12 21 12 18 41  48  5.1525    113.23428    266.45827    151.96384    -25.00000     25.00000     -7.79913    150.0    150.0      0.0      0.0    -20.0    400.0      1.0
     218 2002 12 21 12 18 46 217  5.1688    113.27609    266.48545    151.97418    -25.00000     25.00000     -7.84189    150.0    150.0      0.0      0.0    -20.0    400.0      1.0
     219 2002 12 21 12 18 51 396  5.1798    113.30490    266.51172    151.98742    -25.00000     25.00000     -7.92026    150.0    150.0      0.0      0.0    -20.0    400.0      1.0
     220 2002 12 21 12 18 56 574  5.1776    113.06754    266.54131    152.01757    -25.00000     25.00000     -7.92378    150.0    150.0      0.0      0.0    -20.0    400.0      1.0
     221 2002 12 21 12 19  1 743  5.1686    113.07933    266.57184    152.05309    -25.00000     25.00000     -7.88920    150.0    150.0      0.0      0.0    -20.0    400.0      1.0
     222 2002 12 21 12 19  6 929  5.1862    113.23718    266.60529    152.08961    -25.00000     25.00000     -7.87709    150.0    150.0      0.0      0.0    -20.0    400.0      1.0
     223 2002 12 21 12 19 12 118  5.1893    113.22645    266.63525    152.11143    -25.00000     25.00000     -7.87492    150.0    150.0      0.0      0.0    -20.0    400.0      1.0
     224 2002 12 21 12 19 17 294  5.1761    113.09182    266.65595    152.11760    -25.00000     25.00000     -7.87770    150.0    150.0      0.0      0.0    -20.0    400.0      1.0
     225 2002 12 21 12 19 22 477  5.1829    112.91721    266.67068    152.13076    -25.00000     25.00000     -7.92920    150.0    150.0      0.0      0.0    -20.0    400.0      1.0
     226 2002 12 21 12 19 27 648  5.1713    112.79104    266.67950    152.15881    -25.00000     25.00000     -7.98078    150.0    150.0      0.0      0.0    -20.0    400.0      1.0
     227 2002 12 21 12 19 32 822  5.1737    112.61254    266.67605    152.19786    -25.00000     25.00000     -7.93970    150.0    150.0      0.0      0.0    -20.0    400.0      1.0
     228 2002 12 21 12 19 37 997  5.1746    112.35829    266.67125    152.23352    -25.00000     25.00000     -7.92134    150.0    150.0      0.0      0.0    -20.0    400.0      1.0
     229 2002 12 21 12 19 43 164  5.1673    112.10901    266.67097    152.25699    -25.00000     25.00000     -7.90944    150.0    150.0      0.0      0.0    -20.0    400.0      1.0
     230 2002 12 21 12 19 48 339  5.1752    111.51900    266.67475    152.25937    -25.00000     25.00000     -7.95397    150.0    150.0      0.0      0.0    -20.0    400.0      1.0
     231 2002 12 21 12 19 53 503  5.1637    111.11106    266.68291    152.26263    -25.00000     25.00000     -8.00587    150.0    150.0      0.0      0.0    -20.0    400.0      1.0
     232 2002 12 21 12 19 58 677  5.1741    111.00199    266.69568    152.27272    -25.00000     25.00000     -8.05559    150.0    150.0      0.0      0.0    -20.0    400.0      1.0
     233 2002 12 21 12 20  3 838  5.1604    110.45128    266.71149    152.28217    -25.00000     25.00000     -8.13748    150.0    150.0      0.0      0.0    -20.0    400.0      1.0
     234 2002 12 21 12 20  9   7  5.1697    110.10064    266.72963    152.28547    -25.00000     25.00000     -8.15932    150.0    150.0      0.0      0.0    -20.0    400.0      1.0
     235 2002 12 21 12 20 14 179  5.1714    110.08826    266.75157    152.28874    -25.00000     25.00000     -8.18478    150.0    150.0      0.0      0.0    -20.0    400.0      1.0
     236 2002 12 21 12 20 19 350  5.1709    109.71084    266.77879    152.28907    -25.00000     25.00000     -8.18317    150.0    150.0      0.0      0.0    -20.0    400.0      1.0
     237 2002 12 21 12 20 24 532  5.1822    109.41203    266.80703    152.30056    -25.00000     25.00000     -8.22826    150.0    150.0      0.0      0.0    -20.0    400.0      1.0
     238 2002 12 21 12 20 29 701  5.1693    109.31464    266.83060    152.32669    -25.00000     25.00000     -8.24983    150.0    150.0      0.0      0.0    -20.0    400.0      1.0
     239 2002 12 21 12 20 34 887  5.1859    109.07832    266.85236    152.33455    -25.00000     25.00000     -8.28946    150.0    150.0      0.0      0.0    -20.0    400.0      1.0
     240 2002 12 21 12 20 40  41  5.1542    108.88867    266.86499    152.35062    -25.00000     25.00000     -8.38009    150.0    150.0      0.0      0.0    -20.0    400.0      1.0
     241 2002 12 21 12 20 45 224  5.1832    108.68962    266.87300    152.35838    -25.00000     25.00000     -8.47607    150.0    150.0      0.0      0.0    -20.0    400.0      1.0
     242 2002 12 21 12 20 50 396  5.1713    108.63440    266.88211    152.39061    -25.00000     25.00000     -8.50649    150.0    150.0      0.0      0.0    -20.0    400.0      1.0
     243 2002 12 21 12 20 55 554  5.1583    108.47766    266.89353    152.42784    -25.00000     25.00000     -8.60613    150.0    150.0      0.0      0.0    -20.0    400.0      1.0
     244 2002 12 21 12 21  0 717  5.1627    108.23913    266.90543    152.45817    -25.00000     25.00000     -8.68026    150.0    150.0      0.0      0.0    -20.0    400.0      1.0
     245 2002 12 21 12 21  5 868  5.1513    108.04934    266.92631    152.50090    -25.00000     25.00000     -8.72442    150.0    150.0      0.0      0.0    -20.0    400.0      1.0
     246 2002 12 21 12 21 11   7  5.1392    107.96926    266.95354    152.52125    -25.00000     25.00000     -8.81709    150.0    150.0      0.0      0.0    -20.0    400.0      1.0
     247 2002 12 21 12 21 16 134  5.1271    107.76554    266.98631    152.55370    -25.00000     25.00000     -8.85637    150.0    150.0      0.0      0.0    -20.0    400.0      1.0
     248 2002 12 21 12 21 21 251  5.1164    107.56862    267.02542    152.59126    -25.00000     25.00000     -8.84175    150.0    150.0      0.0      0.0    -20.0    400.0      1.0
     249 2002 12 21 12 21 26 359  5.1082    107.32463    267.07298    152.62367    -25.00000     25.00000     -8.89805    150.0    150.0      0.0      0.0    -20.0    400.0      1.0
     250 2002 12 21 12 21 31 459  5.0998    107.04267    267.11196    152.67248    -25.00000     25.00000     -8.96335    150.0    150.0      0.0      0.0    -20.0    400.0      1.0
     251 2002 12 21 12 21 36 554  5.0951    106.91440    267.14393    152.72188    -25.00000     25.00000     -9.02776    150.0    150.0      0.0      0.0    -20.0    400.0      1.0
     252 2002 12 21 12 21 41 640  5.0867    106.51370    267.16335    152.76980    -25.00000     25.00000     -9.18992    150.0    150.0      0.0      0.0    -20.0    400.0      1.0
     253 2002 12 21 12 21 46 728  5.0872    106.27126    267.17420    152.82782    -25.00000     25.00000     -9.35733    150.0    150.0      0.0      0.0    -20.0    400.0      1.0
     254 2002 12 21 12 21 51 788  5.0600    106.00764    267.18137    152.88596    -25.00000     25.00000     -9.34775    150.0    150.0      0.0      0.0    -20.0    400.0      1.0
     255 2002 12 21 12 21 56 863  5.0753    105.71192    267.19528    152.94720    -25.00000     25.00000     -9.45628    150.0    150.0      0.0      0.0    -20.0    400.0      1.0
     256 2002 12 21 12 22  1 933  5.0701    105.42531    267.22250    152.99694    -25.00000     25.00000     -9.50394    150.0    150.0      0.0      0.0    -20.0    400.0      1.0
     257 2002 12 21 12 22  6 998  5.0645    105.16806    267.26180    153.06736    -25.00000     25.00000     -9.46663    150.0    150.0      0.0      0.0    -20.0    400.0      1.0
     258 2002 12 21 12 22 12  55  5.0578    104.89765    267.32292    153.12259    -25.00000     25.00000     -9.41647    150.0    150.0      0.0      0.0    -20.0    400.0      1.0
     259 2002 12 21 12 22 17 116  5.0611    104.64185    267.38433    153.16292    -25.00000     25.00000     -9.24991    150.0    150.0      0.0      0.0    -20.0    400.0      1.0
     260 2002 12 21 12 22 22 161  5.0444    104.67693    267.43421    153.17561    -25.00000     25.00000     -9.08300    150.0    150.0      0.0      0.0    -20.0    400.0      1.0
     261 2002 12 21 12 22 27 216  5.0553    104.39729    267.47881    153.16536    -25.00000     25.00000     -8.98886    150.0    150.0      0.0      0.0    -20.0    400.0      1.0
     262 2002 12 21 12 22 32 250  5.0340    104.13742    267.51553    153.16198    -25.00000     25.00000     -8.94313    150.0    150.0      0.0      0.0    -20.0    400.0      1.0
     263 2002 12 21 12 22 37 291  5.0411    104.05148    267.53893    153.14260    -25.00000     25.00000     -8.84835    150.0    150.0      0.0      0.0    -20.0    400.0      1.0
     264 2002 12 21 12 22 42 312  5.0205    104.24340    267.56104    153.13154    -25.00000     25.00000     -8.70869    150.0    150.0      0.0      0.0    -20.0    400.0      1.0
     265 2002 12 21 12 22 47 338  5.0264    104.01709    267.57706    153.11801    -25.00000     25.00000     -8.58652    150.0    150.0      0.0      0.0    -20.0    400.0      1.0
     266 2002 12 21 12 22 52 347  5.0086    103.84332    267.59949    153.10792    -25.00000     25.00000     -8.44249    150.0    150.0      0.0      0.0    -20.0    400.0      1.0
     267 2002 12 21 12 22 57 357  5.0101    104.16409    267.63323    153.10332    -25.00000     25.00000     -8.28679    150.0    150.0      0.0      0.0    -20.0    400.0      1.0
     268 2002 12 21 12 23  2 353  4.9961    104.20444    267.66761    153.11646    -25.00000     25.00000     -8.15837    150.0    150.0      0.0      0.0    -20.0    400.0      1.0
     269 2002 12 21 12 23  7 347  4.9941    104.02450    267.69681    153.13582    -25.00000     25.00000     -8.02111    150.0    150.0      0.0      0.0    -20.0    400.0      1.0
     270 2002 12 21 12 23 12 330  4.9830    104.14981    267.72474    153.15073    -25.00000     25.00000     -7.87264    150.0    150.0      0.0      0.0    -20.0    400.0      1.0
     271 2002 12 21 12 23 17 307  4.9773    104.77968    267.75856    153.16342    -25.00000     25.00000     -7.80699    150.0    150.0      0.0      0.0    -20.0    400.0      1.0
     272 2002 12 21 12 23 22 277  4.9697    104.56686    267.78241    153.19473    -25.00000     25.00000     -7.74228    150.0    150.0      0.0      0.0    -20.0    400.0      1.0
     273 2002 12 21 12 23 27 239  4.9625    104.58666    267.80852    153.21460    -25.00000     25.00000     -7.63060    150.0    150.0      0.0      0.0    -20.0    400.0      1.0
     274 2002 12 21 12 23 32 198  4.9583    104.80036    267.82559    153.25185    -25.00000     25.00000     -7.52858    150.0    150.0      0.0      0.0    -20.0    400.0      1.0
     275 2002 12 21 12 23 37 151  4.9533    105.38318    267.84143    153.29320    -25.00000     25.00000     -7.39607    150.0    150.0      0.0      0.0    -20.0    400.0      1.0
     276 2002 12 21 12 23 42 109  4.9575    104.96690    267.86108    153.33460    -25.00000     25.00000     -7.18817    150.0    150.0      0.0      0.0    -20.0    400.0      1.0
     277 2002 12 21 12 23 47  52  4.9433    104.55993    267.87871    153.36672    -25.00000     25.00000     -6.99244    150.0    150.0      0.0      0.0    -20.0    400.0      1.0
     278 2002 12 21 12 23 52   9  4.9571    105.27381    267.89100    153.38398    -25.00000     25.00000     -6.78203    150.0    150.0      0.0      0.0    -20.0    400.0      1.0
     279 2002 12 21 12 23 56 956  4.9472    105.12952    267.91069    153.37464    -25.00000     25.00000     -6.51475    150.0    150.0      0.0      0.0    -20.0    400.0      1.0
     280 2002 12 21 12 24  1 913  4.9564    104.23653    267.93378    153.34621    -25.00000     25.00000     -6.29921    150.0    150.0      0.0      0.0    -20.0    400.0      1.0
     281 2002 12 21 12 24  6 863  4.9505    103.41190    267.95596    153.31306    -25.00000     25.00000     -6.08858    150.0    150.0      0.0      0.0    -20.0    400.0      1.0
     282 2002 12 21 12 24 11 805  4.9420    103.54130    267.97380    153.27570    -25.00000     25.00000     -5.90166    150.0    150.0      0.0      0.0    -20.0    400.0      1.0
     283 2002 12 21 12 24 16 753  4.9475    102.60046    267.98393    153.23477    -25.00000     25.00000     -5.71832    150.0    150.0      0.0      0.0    -20.0    400.0      1.0
     284 2002 12 21 12 24 21 701  4.9483    101.43472    267.98689    153.16372    -25.00000     25.00000     -5.56078    150.0    150.0      0.0      0.0    -20.0    400.0      1.0
     285 2002 12 21 12 24 26 633  4.9322    101.07974    267.99490    153.06281    -25.00000     25.00000     -5.38649    150.0    150.0      0.0      0.0    -20.0    400.0      1.0
     286 2002 12 21 12 24 31 557  4.9242    101.05497    268.00385    152.94154    -25.00000     25.00000     -5.31431    150.0    150.0      0.0      0.0    -20.0    400.0      1.0
     287 2002 12 21 12 24 36 477  4.9201    100.81291    268.02194    152.81921    -25.00000     25.00000     -5.24778    150.0    150.0      0.0      0.0    -20.0    400.0      1.0
     288 2002 12 21 12 24 41 407  4.9293    100.42370    268.04695    152.69616    -25.00000     25.00000     -5.16738    150.0    150.0      0.0      0.0    -20.0    400.0      1.0
     289 2002 12 21 12 24 46 344  4.9373    100.18430    268.08189    152.56895    -25.00000     25.00000     -5.14791    150.0    150.0      0.0      0.0    -20.0    400.0      1.0
     290 2002 12 21 12 24 51 283  4.9393    100.13330    268.11348    152.44694    -25.00000     25.00000     -5.12505    150.0    150.0      0.0      0.0    -20.0    400.0      1.0
     291 2002 12 21 12 24 56 223  4.9402    100.32681    268.13196    152.31874    -25.00000     25.00000     -5.14547    150.0    150.0      0.0      0.0    -20.0    400.0      1.0
     292 2002 12 21 12 25  1 158  4.9342     99.97317    268.14324    152.19026    -25.00000     25.00000     -5.14724    150.0    150.0      0.0      0.0    -20.0    400.0      1.0
     293 2002 12 21 12 25  6  95  4.9375     99.64970    268.14548    152.06024    -25.00000     25.00000     -5.28121    150.0    150.0      0.0      0.0    -20.0    400.0      1.0
     294 2002 12 21 12 25 11  42  4.9467     99.97366    268.14688    151.92779    -25.00000     25.00000     -5.32438    150.0    150.0      0.0      0.0    -20.0    400.0      1.0
     295 2002 12 21 12 25 15 992  4.9497    100.07508    268.15910    151.80099    -25.00000     25.00000     -5.38929    150.0    150.0      0.0      0.0    -20.0    400.0      1.0
     296 2002 12 21 12 25 20 951  4.9598     99.60853    268.17334    151.67057    -25.00000     25.00000     -5.49315    150.0    150.0      0.0      0.0    -20.0    400.0      1.0
     297 2002 12 21 12 25 25 923  4.9715     99.85743    268.19766    151.54995    -25.00000     25.00000     -5.57107    150.0    150.0      0.0      0.0    -20.0    400.0      1.0
     298 2002 12 21 12 25 30 907  4.9844    100.65315    268.21616    151.43169    -25.00000     25.00000     -5.70576    150.0    150.0      0.0      0.0    -20.0    400.0      1.0
     299 2002 12 21 12 25 35 906  4.9985    100.13553    268.21597    151.31798    -25.00000     25.00000     -5.80469    150.0    150.0      0.0      0.0    -20.0    400.0      1.0
     300 2002 12 21 12 25 40 920  5.0137    100.38268    268.21321    151.21931    -25.00000     25.00000     -5.96751    150.0    150.0      0.0      0.0    -20.0    400.0      1.0
     301 2002 12 21 12 25 45 949  5.0297    101.31094    268.21246    151.11531    -25.00000     25.00000     -6.12430    150.0    150.0      0.0      0.0    -20.0    400.0      1.0
     302 2002 12 21 12 25 50 996  5.0470    101.50346    268.20911    151.02868    -25.00000     25.00000     -6.28553    150.0    150.0      0.0      0.0    -20.0    400.0      1.0
     303 2002 12 21 12 25 56  39  5.0425    101.83186    268.20106    150.94631    -25.00000     25.00000     -6.42692    150.0    150.0      0.0      0.0    -20.0    400.0      1.0
     304 2002 12 21 12 26  1 114  5.0755    102.64384    268.19534    150.87094    -25.00000     25.00000     -6.59756    150.0    150.0      0.0      0.0    -20.0    400.0      1.0
     305 2002 12 21 12 26  6 170  5.0553    103.42682    268.19641    150.81170    -25.00000     25.00000     -6.71176    150.0    150.0      0.0      0.0    -20.0    400.0      1.0
     306 2002 12 21 12 26 11 216  5.0465    103.97345    268.20482    150.75467    -25.00000     25.00000     -6.83289    150.0    150.0      0.0      0.0    -20.0    400.0      1.0
     307 2002 12 21 12 26 16 293  5.0766    104.79654    268.20974    150.70677    -25.00000     25.00000     -6.95903    150.0    150.0      0.0      0.0    -20.0    400.0      1.0
     308 2002 12 21 12 26 21 349  5.0560    104.09257    268.20420    150.67933    -25.00000     25.00000     -7.13736    150.0    150.0      0.0      0.0    -20.0    400.0      1.0
     309 2002 12 21 12 26 26 406  5.0573    103.57536    268.20829    150.64428    -25.00000     25.00000     -7.25550    150.0    150.0      0.0      0.0    -20.0    400.0      1.0
     310 2002 12 21 12 26 31 458  5.0523    103.00622    268.21490    150.62929    -25.00000     25.00000     -7.40368    150.0    150.0      0.0      0.0    -20.0    400.0      1.0
     311 2002 12 21 12 26 36 501  5.0429    102.17622    268.22076    150.62842    -25.00000     25.00000     -7.46121    150.0    150.0      0.0      0.0    -20.0    400.0      1.0
     312 2002 12 21 12 26 41 544  5.0429    101.66771    268.22511    150.62653    -25.00000     25.00000     -7.53436    150.0    150.0      0.0      0.0    -20.0    400.0      1.0
     313 2002 12 21 12 26 46 573  5.0293    101.40695    268.22815    150.63840    -25.00000     25.00000     -7.57489    150.0    150.0      0.0      0.0    -20.0    400.0      1.0
     314 2002 12 21 12 26 51 611  5.0373    100.79144    268.24136    150.66938    -25.00000     25.00000     -7.53501    150.0    150.0      0.0      0.0    -20.0    400.0      1.0
     315 2002 12 21 12 26 56 637  5.0259    100.70463    268.26110    150.69311    -25.00000     25.00000     -7.50646    150.0    150.0      0.0      0.0    -20.0    400.0      1.0
     316 2002 12 21 12 27  1 665  5.0286    100.71909    268.27306    150.73643    -25.00000     25.00000     -7.56119    150.0    150.0      0.0      0.0    -20.0    400.0      1.0
     317 2002 12 21 12 27  6 691  5.0258    100.16141    268.28660    150.78646    -25.00000     25.00000     -7.43717    150.0    150.0      0.0      0.0    -20.0    400.0      1.0
     318 2002 12 21 12 27 11 715  5.0238     99.65661    268.30481    150.83596    -25.00000     25.00000     -7.41190    150.0    150.0      0.0      0.0    -20.0    400.0      1.0
     319 2002 12 21 12 27 16 746  5.0315     99.24793    268.30390    150.90079    -25.00000     25.00000     -7.24618    150.0    150.0      0.0      0.0    -20.0    400.0      1.0
     320 2002 12 21 12 27 21 761  5.0146     98.90348    268.27622    150.96941    -25.00000     25.00000     -7.07953    150.0    150.0      0.0      0.0    -20.0    400.0      1.0
     321 2002 12 21 12 27 26 765  5.0040     98.43825    268.22632    151.03802    -25.00000     25.00000     -7.02601    150.0    150.0      0.0      0.0    -20.0    400.0      1.0
     322 2002 12 21 12 27 31 756  4.9907     98.03573    268.18538    151.11708    -25.00000     25.00000     -6.84168    150.0    150.0      0.0      0.0    -20.0    400.0      1.0
     323 2002 12 21 12 27 36 737  4.9815     97.73574    268.16838    151.19569    -25.00000     25.00000     -6.77511    150.0    150.0      0.0      0.0    -20.0    400.0      1.0
     324 2002 12 21 12 27 41 707  4.9696     97.38111    268.16707    151.27792    -25.00000     25.00000     -6.61229    150.0    150.0      0.0      0.0    -20.0    400.0      1.0
     325 2002 12 21 12 27 46 671  4.9643     97.00725    268.17852    151.33711    -25.00000     25.00000     -6.44435    150.0    150.0      0.0      0.0    -20.0    400.0      1.0
     326 2002 12 21 12 27 51 621  4.9504     96.62288    268.19557    151.37513    -25.00000     25.00000     -6.30535    150.0    150.0      0.0      0.0    -20.0    400.0      1.0
     327 2002 12 21 12 27 56 569  4.9479     96.24615    268.21783    151.40983    -25.00000     25.00000     -6.11917    150.0    150.0      0.0      0.0    -20.0    400.0      1.0
     328 2002 12 21 12 28  1 502  4.9321     95.87777    268.23109    151.45954    -25.00000     25.00000     -5.97313    150.0    150.0      0.0      0.0    -20.0    400.0      1.0
     329 2002 12 21 12 28  6 434  4.9323     95.52415    268.23760    151.52410    -25.00000     25.00000     -5.77581    150.0    150.0      0.0      0.0    -20.0    400.0      1.0
     330 2002 12 21 12 28 11 353  4.9196     95.19676    268.23866    151.59011    -25.00000     25.00000     -5.70353    150.0    150.0      0.0      0.0    -20.0    400.0      1.0
     331 2002 12 21 12 28 16 269  4.9161     94.90712    268.23949    151.64179    -25.00000     25.00000     -5.57032    150.0    150.0      0.0      0.0    -20.0    400.0      1.0
     332 2002 12 21 12 28 21 186  4.9165     94.64276    268.23926    151.68702    -25.00000     25.00000     -5.42422    150.0    150.0      0.0      0.0    -20.0    400.0      1.0
     333 2002 12 21 12 28 26  90  4.9036     94.40064    268.24534    151.71611    -25.00000     25.00000     -5.29960    150.0    150.0      0.0      0.0    -20.0    400.0      1.0
     334 2002 12 21 12 28 31   5  4.9150     94.15017    268.26314    151.74824    -25.00000     25.00000     -5.24250    150.0    150.0      0.0      0.0    -20.0    400.0      1.0
     335 2002 12 21 12 28 35 901  4.8961     93.90701    268.29068    151.79551    -25.00000     25.00000     -5.24784    150.0    150.0      0.0      0.0    -20.0    400.0      1.0
     336 2002 12 21 12 28 40 814  4.9135     93.67066    268.31341    151.85114    -25.00000     25.00000     -5.26434    150.0    150.0      0.0      0.0    -20.0    400.0      1.0
     337 2002 12 21 12 28 45 714  4.8998     93.43191    268.32631    151.91329    -25.00000     25.00000     -5.25942    150.0    150.0      0.0      0.0    -20.0    400.0      1.0
     338 2002 12 21 12 28 50 622  4.9081     93.21199    268.34153    151.95276    -25.00000     25.00000     -5.26469    150.0    150.0      0.0      0.0    -20.0    400.0      1.0
     339 2002 12 21 12 28 55 525  4.9031     93.01079    268.35443    152.02806    -25.00000     25.00000     -5.30938    150.0    150.0      0.0      0.0    -20.0    400.0      1.0
     340 2002 12 21 12 29  0 424  4.8988     92.74963    268.35895    152.11383    -25.00000     25.00000     -5.42410    150.0    150.0      0.0      0.0    -20.0    400.0      1.0
     341 2002 12 21 12 29  5 312  4.8882     92.57984    268.36307    152.16761    -25.00000     25.00000     -5.47420    150.0    150.0      0.0      0.0    -20.0    400.0      1.0
     342 2002 12 21 12 29 10 198  4.8861     92.34441    268.37025    152.19808    -25.00000     25.00000     -5.45349    150.0    150.0      0.0      0.0    -20.0    400.0      1.0
     343 2002 12 21 12 29 15  87  4.8889     92.10478    268.38938    152.21349    -25.00000     25.00000     -5.40951    150.0    150.0      0.0      0.0    -20.0    400.0      1.0
     344 2002 12 21 12 29 19 958  4.8710     91.87414    268.40940    152.21776    -25.00000     25.00000     -5.43602    150.0    150.0      0.0      0.0    -20.0    400.0      1.0
     345 2002 12 21 12 29 24 834  4.8756     91.72316    268.42399    152.21471    -25.00000     25.00000     -5.43912    150.0    150.0      0.0      0.0    -20.0    400.0      1.0
     346 2002 12 21 12 29 29 698  4.8649     91.67356    268.43490    152.23472    -25.00000     25.00000     -5.46007    150.0    150.0      0.0      0.0    -20.0    400.0      1.0
     347 2002 12 21 12 29 34 541  4.8430     91.69152    268.44596    152.23454    -25.00000     25.00000     -5.50128    150.0    150.0      0.0      0.0    -20.0    400.0      1.0
     348 2002 12 21 12 29 39 405  4.8637     91.48953    268.45352    152.26067    -25.00000     25.00000     -5.53857    150.0    150.0      0.0      0.0    -20.0    400.0      1.0
     349 2002 12 21 12 29 44 243  4.8379     91.34896    268.46460    152.28766    -25.00000     25.00000     -5.64550    150.0    150.0      0.0      0.0    -20.0    400.0      1.0
     350 2002 12 21 12 29 49  52  4.8088     91.23705    268.48629    152.29260    -25.00000     25.00000     -5.72010    150.0    150.0      0.0      0.0    -20.0    400.0      1.0
     351 2002 12 21 12 29 53 913  4.8612     91.18848    268.52191    152.32693    -25.00000     25.00000     -5.77326    150.0    150.0      0.0      0.0    -20.0    400.0      1.0
     352 2002 12 21 12 29 58 731  4.8176     91.45359    268.56288    152.35191    -25.00000     25.00000     -5.92649    150.0    150.0      0.0      0.0    -20.0    400.0      1.0
     353 2002 12 21 12 30  3 550  4.8192     91.30463    268.59241    152.37275    -25.00000     25.00000     -5.99056    150.0    150.0      0.0      0.0    -20.0    400.0      1.0
     354 2002 12 21 12 30  8 392  4.8423     91.15542    268.61764    152.41595    -25.00000     25.00000     -6.15917    150.0    150.0      0.0      0.0    -20.0    400.0      1.0
     355 2002 12 21 12 30 13 226  4.8335     91.06985    268.70294    152.42465    -25.00000     25.00000     -6.30610    150.0    150.0      0.0      0.0    -20.0    400.0      1.0
     356 2002 12 21 12 30 18  74  4.8487     91.39845    268.75169    152.44809    -25.00000     25.00000     -6.47329    150.0    150.0      0.0      0.0    -20.0    400.0      1.0
     357 2002 12 21 12 30 22 895  4.8208     91.64745    268.77587    152.48209    -25.00000     25.00000     -6.63844    150.0    150.0      0.0      0.0    -20.0    400.0      1.0
     358 2002 12 21 12 30 27 728  4.8325     91.58892    268.80304    152.47751    -25.00000     25.00000     -6.72900    150.0    150.0      0.0      0.0    -20.0    400.0      1.0
     359 2002 12 21 12 30 32 570  4.8428     91.51085    268.83189    152.49382    -25.00000     25.00000     -6.80315    150.0    150.0      0.0      0.0    -20.0    400.0      1.0
     360 2002 12 21 12 30 37 372  4.8020     91.65750    268.86914    152.50850    -25.00000     25.00000     -6.88588    150.0    150.0      0.0      0.0    -20.0    400.0      1.0
     361 2002 12 21 12 30 42 205  4.8331     91.94415    268.90524    152.49710    -25.00000     25.00000     -6.95385    150.0    150.0      0.0      0.0    -20.0    400.0      1.0
     362 2002 12 21 12 30 47  37  4.8310     92.33105    268.92749    152.49163    -25.00000     25.00000     -7.09167    150.0    150.0      0.0      0.0    -20.0    400.0      1.0
     363 2002 12 21 12 30 51 842  4.8054     92.59196    268.94133    152.48564    -25.00000     25.00000     -7.22056    150.0    150.0      0.0      0.0    -20.0    400.0      1.0
     364 2002 12 21 12 30 56 666  4.8243     92.53970    268.96303    152.47700    -25.00000     25.00000     -7.36481    150.0    150.0      0.0      0.0    -20.0    400.0      1.0
     365 2002 12 21 12 31  1 471  4.8053     92.53439    268.97892    152.47370    -25.00000     25.00000     -7.54600    150.0    150.0      0.0      0.0    -20.0    400.0      1.0
     366 2002 12 21 12 31  6 267  4.7956     92.56202    268.99019    152.49326    -25.00000     25.00000     -7.65497    150.0    150.0      0.0      0.0    -20.0    400.0      1.0
     367 2002 12 21 12 31 11  58  4.7913     92.62634    269.00602    152.48310    -25.00000     25.00000     -7.61145    150.0    150.0      0.0      0.0    -20.0    400.0      1.0
     368 2002 12 21 12 31 15 846  4.7880     92.73190    269.02915    152.44012    -25.00000     25.00000     -7.54780    150.0    150.0      0.0      0.0    -20.0    400.0      1.0
     369 2002 12 21 12 31 20 615  4.7684     92.92208    269.06051    152.40890    -25.00000     25.00000     -7.51419    150.0    150.0      0.0      0.0    -20.0    400.0      1.0
     370 2002 12 21 12 31 25 383  4.7683     93.13896    269.08985    152.32784    -25.00000     25.00000     -7.46521    150.0    150.0      0.0      0.0    -20.0    400.0      1.0
     371 2002 12 21 12 31 30 158  4.7746     93.41067    269.10515    152.26258    -25.00000     25.00000     -7.47173    150.0    150.0      0.0      0.0    -20.0    400.0      1.0
     372 2002 12 21 12 31 34 934  4.7760     93.45367    269.12317    152.20562    -25.00000     25.00000     -7.49671    150.0    150.0      0.0      0.0    -20.0    400.0      1.0
     373 2002 12 21 12 31 39 733  4.7999     93.53872    269.15154    152.12955    -25.00000     25.00000     -7.46429    150.0    150.0      0.0      0.0    -20.0    400.0      1.0
     374 2002 12 21 12 31 44 528  4.7950     93.89330    269.16968    152.08548    -25.00000     25.00000     -7.43138    150.0    150.0      0.0      0.0    -20.0    400.0      1.0
     375 2002 12 21 12 31 49 303  4.7746     94.06047    269.18338    152.02016    -25.00000     25.00000     -7.41160    150.0    150.0      0.0      0.0    -20.0    400.0      1.0
     376 2002 12 21 12 31 54  98  4.7944     92.72922    269.19138    151.96420    -25.00000     25.00000     -7.40073    150.0    150.0      0.0      0.0    -20.0    400.0      1.0
     377 2002 12 21 12 31 58 867  4.7698     91.72392    269.19542    151.92054    -25.00000     25.00000     -7.37397    150.0    150.0      0.0      0.0    -20.0    400.0      1.0
     378 2002 12 21 12 32  3 646  4.7785     91.32823    269.20328    151.84814    -25.00000     25.00000     -7.32765    150.0    150.0      0.0      0.0    -20.0    400.0      1.0
     379 2002 12 21 12 32  8 430  4.7840     91.16112    269.21330    151.80507    -25.00000     25.00000     -7.27147    150.0    150.0      0.0      0.0    -20.0    400.0      1.0
     380 2002 12 21 12 32 13 184  4.7539     90.18277    269.21969    151.75467    -25.00000     25.00000     -7.21849    150.0    150.0      0.0      0.0    -20.0    400.0      1.0
     381 2002 12 21 12 32 17 963  4.7788     89.43710    269.23394    151.68952    -25.00000     25.00000     -7.14874    150.0    150.0      0.0      0.0    -20.0    400.0      1.0
     382 2002 12 21 12 32 22 714  4.7514     89.10265    269.25829    151.64179    -25.00000     25.00000     -7.07411    150.0    150.0      0.0      0.0    -20.0    400.0      1.0
     383 2002 12 21 12 32 27 473  4.7593     88.84031    269.27993    151.58275    -25.00000     25.00000     -7.01784    150.0    150.0      0.0      0.0    -20.0    400.0      1.0
     384 2002 12 21 12 32 32 239  4.7662     88.65385    269.29818    151.52529    -25.00000     25.00000     -6.95180    150.0    150.0      0.0      0.0    -20.0    400.0      1.0
     385 2002 12 21 12 32 36 996  4.7567     88.40588    269.32108    151.46860    -25.00000     25.00000     -6.89046    150.0    150.0      0.0      0.0    -20.0    400.0      1.0
     386 2002 12 21 12 32 41 741  4.7444     88.15018    269.33629    151.40423    -25.00000     25.00000     -6.82278    150.0    150.0      0.0      0.0    -20.0    400.0      1.0
     387 2002 12 21 12 32 46 485  4.7444     87.83941    269.34598    151.34820    -25.00000     25.00000     -6.77526    150.0    150.0      0.0      0.0    -20.0    400.0      1.0
     388 2002 12 21 12 32 51 238  4.7532     87.54882    269.35889    151.28123    -25.00000     25.00000     -6.72541    150.0    150.0      0.0      0.0    -20.0    400.0      1.0
     389 2002 12 21 12 32 56   5  4.7670     87.24615    269.36726    151.21447    -25.00000     25.00000     -6.69647    150.0    150.0      0.0      0.0    -20.0    400.0      1.0
     390 2002 12 21 12 33  0 758  4.7532     86.98133    269.36755    151.15606    -25.00000     25.00000     -6.73428    150.0    150.0      0.0      0.0    -20.0    400.0      1.0
     391 2002 12 21 12 33  5 499  4.7408     86.75955    269.36723    151.10977    -25.00000     25.00000     -6.75400    150.0    150.0      0.0      0.0    -20.0    400.0      1.0
     392 2002 12 21 12 33 10 242  4.7427     86.56483    269.36587    151.07387    -25.00000     25.00000     -6.76852    150.0    150.0      0.0      0.0    -20.0    400.0      1.0
     393 2002 12 21 12 33 14 971  4.7293     86.42862    269.36446    151.01716    -25.00000     25.00000     -6.73532    150.0    150.0      0.0      0.0    -20.0    400.0      1.0
     394 2002 12 21 12 33 19 707  4.7360     86.31830    269.36843    150.95926    -25.00000     25.00000     -6.70226    150.0    150.0      0.0      0.0    -20.0    400.0      1.0
     395 2002 12 21 12 33 24 429  4.7219     86.24073    269.37568    150.88104    -25.00000     25.00000     -6.70748    150.0    150.0      0.0      0.0    -20.0    400.0      1.0
     396 2002 12 21 12 33 29 132  4.7032     86.10762    269.37879    150.79124    -25.00000     25.00000     -6.70268    150.0    150.0      0.0      0.0    -20.0    400.0      1.0
     397 2002 12 21 12 33 33 840  4.7079     85.99115    269.38285    150.70439    -25.00000     25.00000     -6.71627    150.0    150.0      0.0      0.0    -20.0    400.0      1.0
     398 2002 12 21 12 33 38 560  4.7202     85.77201    269.39333    150.60223    -25.00000     25.00000     -6.73649    150.0    150.0      0.0      0.0    -20.0    400.0      1.0
     399 2002 12 21 12 33 43 290  4.7301     85.56603    269.40450    150.51895    -25.00000     25.00000     -6.77714    150.0    150.0      0.0      0.0    -20.0    400.0      1.0
     400 2002 12 21 12 33 47 996  4.7053     85.36660    269.41183    150.43844    -25.00000     25.00000     -6.83914    150.0    150.0      0.0      0.0    -20.0    400.0      1.0
     401 2002 12 21 12 33 52 720  4.7242     85.18334    269.42224    150.35335    -25.00000     25.00000     -6.86332    150.0    150.0      0.0      0.0    -20.0    400.0      1.0
     402 2002 12 21 12 33 57 425  4.7048     85.00628    269.43597    150.29273    -25.00000     25.00000     -6.86239    150.0    150.0      0.0      0.0    -20.0    400.0      1.0
     403 2002 12 21 12 34  2 114  4.6891     84.87701    269.44389    150.21053    -25.00000     25.00000     -6.85714    150.0    150.0      0.0      0.0    -20.0    400.0      1.0
     404 2002 12 21 12 34  6 816  4.7021     84.77300    269.44340    150.15118    -25.00000     25.00000     -6.90739    150.0    150.0      0.0      0.0    -20.0    400.0      1.0
     405 2002 12 21 12 34 11 503  4.6870     84.68191    269.44089    150.09501    -25.00000     25.00000     -6.90011    150.0    150.0      0.0      0.0    -20.0    400.0      1.0
     406 2002 12 21 12 34 16 176  4.6728     84.57927    269.43551    150.03369    -25.00000     25.00000     -6.94414    150.0    150.0      0.0      0.0    -20.0    400.0      1.0
     407 2002 12 21 12 34 20 856  4.6798     84.45284    269.42727    149.98277    -25.00000     25.00000     -6.98398    150.0    150.0      0.0      0.0    -20.0    400.0      1.0
     408 2002 12 21 12 34 25 524  4.6686     84.30428    269.42451    149.93280    -25.00000     25.00000     -6.97730    150.0    150.0      0.0      0.0    -20.0    400.0      1.0
     409 2002 12 21 12 34 30 220  4.6962     84.16468    269.43251    149.88365    -25.00000     25.00000     -7.03506    150.0    150.0      0.0      0.0    -20.0    400.0      1.0
     410 2002 12 21 12 34 34 894  4.6740     84.03788    269.44198    149.84498    -25.00000     25.00000     -7.04923    150.0    150.0      0.0      0.0    -20.0    400.0      1.0
     411 2002 12 21 12 34 39 555  4.6606     83.92164    269.45007    149.79849    -25.00000     25.00000     -7.06693    150.0    150.0      0.0      0.0    -20.0    400.0      1.0
     412 2002 12 21 12 34 44 240  4.6855     83.81148    269.46340    149.76118    -25.00000     25.00000     -7.12418    150.0    150.0      0.0      0.0    -20.0    400.0      1.0
     413 2002 12 21 12 34 48 910  4.6695     83.66475    269.47902    149.72844    -25.00000     25.00000     -7.12286    150.0    150.0      0.0      0.0    -20.0    400.0      1.0
     414 2002 12 21 12 34 53 583  4.6735     83.48114    269.48923    149.68879    -25.00000     25.00000     -7.20371    150.0    150.0      0.0      0.0    -20.0    400.0      1.0
     415 2002 12 21 12 34 58 265  4.6814     83.30199    269.49414    149.65438    -25.00000     25.00000     -7.20059    150.0    150.0      0.0      0.0    -20.0    400.0      1.0
     416 2002 12 21 12 35  2 933  4.6687     83.11685    269.50074    149.62058    -25.00000     25.00000     -7.21222    150.0    150.0      0.0      0.0    -20.0    400.0      1.0
     417 2002 12 21 12 35  7 638  4.7049     82.93164    269.50189    149.58410    -25.00000     25.00000     -7.23384    150.0    150.0      0.0      0.0    -20.0    400.0      1.0
     418 2002 12 21 12 35 12 315  4.6766     82.74860    269.49804    149.56215    -25.00000     25.00000     -7.22725    150.0    150.0      0.0      0.0    -20.0    400.0      1.0
     419 2002 12 21 12 35 16 993  4.6779     82.58842    269.48688    149.52605    -25.00000     25.00000     -7.23489    150.0    150.0      0.0      0.0    -20.0    400.0      1.0
     420 2002 12 21 12 35 21 701  4.7081     82.46019    269.47680    149.50250    -25.00000     25.00000     -7.23700    150.0    150.0      0.0      0.0    -20.0    400.0      1.0
     421 2002 12 21 12 35 26 381  4.6798     82.37232    269.47162    149.47978    -25.00000     25.00000     -7.25603    150.0    150.0      0.0      0.0    -20.0    400.0      1.0
     422 2002 12 21 12 35 31  85  4.7046     82.31195    269.46903    149.45767    -25.00000     25.00000     -7.31443    150.0    150.0      0.0      0.0    -20.0    400.0      1.0
     423 2002 12 21 12 35 35 796  4.7108     82.21577    269.47204    149.44880    -25.00000     25.00000     -7.34645    150.0    150.0      0.0      0.0    -20.0    400.0      1.0
     424 2002 12 21 12 35 40 495  4.6991     82.12549    269.48036    149.43546    -25.00000     25.00000     -7.45018    150.0    150.0      0.0      0.0    -20.0    400.0      1.0
     425 2002 12 21 12 35 45 212  4.7165     81.93759    269.49358    149.44252    -25.00000     25.00000     -7.56260    150.0    150.0      0.0      0.0    -20.0    400.0      1.0
     426 2002 12 21 12 35 49 908  4.6964     81.73446    269.51498    149.46302    -25.00000     25.00000     -7.70491    150.0    150.0      0.0      0.0    -20.0    400.0      1.0
     427 2002 12 21 12 35 54 610  4.7019     81.53107    269.54640    149.48704    -25.00000     25.00000     -7.81232    150.0    150.0      0.0      0.0    -20.0    400.0      1.0
     428 2002 12 21 12 35 59 327  4.7168     81.33222    269.58174    149.52869    -25.00000     25.00000     -7.88496    150.0    150.0      0.0      0.0    -20.0    400.0      1.0
     429 2002 12 21 12 36  4  33  4.7058     81.14301    269.60090    149.55771    -25.00000     25.00000     -7.96759    150.0    150.0      0.0      0.0    -20.0    400.0      1.0
     430 2002 12 21 12 36  8 751  4.7182     80.97901    269.60934    149.58864    -25.00000     25.00000     -8.05252    150.0    150.0      0.0      0.0    -20.0    400.0      1.0
     431 2002 12 21 12 36 13 448  4.6970     80.82020    269.60330    149.61481    -25.00000     25.00000     -8.14451    150.0    150.0      0.0      0.0    -20.0    400.0      1.0
     432 2002 12 21 12 36 18 157  4.7087     80.66217    269.57508    149.63503    -25.00000     25.00000     -8.29843    150.0    150.0      0.0      0.0    -20.0    400.0      1.0
     433 2002 12 21 12 36 22 849  4.6918     80.55169    269.53699    149.66815    -25.00000     25.00000     -8.39198    150.0    150.0      0.0      0.0    -20.0    400.0      1.0
     434 2002 12 21 12 36 27 550  4.7015     80.49914    269.51640    149.69737    -25.00000     25.00000     -8.50121    150.0    150.0      0.0      0.0    -20.0    400.0      1.0
     435 2002 12 21 12 36 32 238  4.6877     80.49364    269.51376    149.73814    -25.00000     25.00000     -8.61869    150.0    150.0      0.0      0.0    -20.0    400.0      1.0
     436 2002 12 21 12 36 36 932  4.6945     80.43700    269.52221    149.78451    -25.00000     25.00000     -8.69748    150.0    150.0      0.0      0.0    -20.0    400.0      1.0
     437 2002 12 21 12 36 41 616  4.6840     80.41782    269.54277    149.83315    -25.00000     25.00000     -8.82479    150.0    150.0      0.0      0.0    -20.0    400.0      1.0
     438 2002 12 21 12 36 46 303  4.6865     80.39533    269.55595    149.90120    -25.00000     25.00000     -8.93267    150.0    150.0      0.0      0.0    -20.0    400.0      1.0
     439 2002 12 21 12 36 50 985  4.6821     80.29583    269.56284    149.95772    -25.00000     25.00000     -9.01328    150.0    150.0      0.0      0.0    -20.0    400.0      1.0
     440 2002 12 21 12 36 55 670  4.6849     80.21921    269.57665    150.02762    -25.00000     25.00000     -9.10087    150.0    150.0      0.0      0.0    -20.0    400.0      1.0
     441 2002 12 21 12 37  0 350  4.6798     80.22681    269.58923    150.10685    -25.00000     25.00000     -9.13667    150.0    150.0      0.0      0.0    -20.0    400.0      1.0
     442 2002 12 21 12 37  5  28  4.6788     80.25242    269.59681    150.17593    -25.00000     25.00000     -9.20937    150.0    150.0      0.0      0.0    -20.0    400.0      1.0
     443 2002 12 21 12 37  9 705  4.6767     80.17653    269.60854    150.25924    -25.00000     25.00000     -9.31366    150.0    150.0      0.0      0.0    -20.0    400.0      1.0
     444 2002 12 21 12 37 14 380  4.6752     80.04265    269.61532    150.34945    -25.00000     25.00000     -9.36784    150.0    150.0      0.0      0.0    -20.0    400.0      1.0
     445 2002 12 21 12 37 19  49  4.6689     79.88470    269.61470    150.43053    -25.00000     25.00000     -9.49269    150.0    150.0      0.0      0.0    -20.0    400.0      1.0
     446 2002 12 21 12 37 23 715  4.6655     79.77291    269.61902    150.52798    -25.00000     25.00000     -9.45430    150.0    150.0      0.0      0.0    -20.0    400.0      1.0
     447 2002 12 21 12 37 28 367  4.6521     79.80063    269.62805    150.60836    -25.00000     25.00000     -9.42317    150.0    150.0      0.0      0.0    -20.0    400.0      1.0
     448 2002 12 21 12 37 33  20  4.6537     79.89711    269.63425    150.69258    -25.00000     25.00000     -9.42192    150.0    150.0      0.0      0.0    -20.0    400.0      1.0
     449 2002 12 21 12 37 37 636  4.6153     79.87786    269.64410    150.76512    -25.00000     25.00000     -9.38604    150.0    150.0      0.0      0.0    -20.0    400.0      1.0
     450 2002 12 21 12 37 42 218  4.5827     79.77614    269.66403    150.82985    -25.00000     25.00000     -9.36742    150.0    150.0      0.0      0.0    -20.0    400.0      1.0
     451 2002 12 21 12 37 46 824  4.6060     79.66534    269.68238    150.88266    -25.00000     25.00000     -9.34934    150.0    150.0      0.0      0.0    -20.0    400.0      1.0
     452 2002 12 21 12 37 51 434  4.6093     79.58376    269.69506    150.89119    -25.00000     25.00000     -9.25046    150.0    150.0      0.0      0.0    -20.0    400.0      1.0
     453 2002 12 21 12 37 56  40  4.6063     79.56257    269.70901    150.86566    -25.00000     25.00000     -9.22331    150.0    150.0      0.0      0.0    -20.0    400.0      1.0
     454 2002 12 21 12 38  0 595  4.5548     79.56962    269.72052    150.82412    -25.00000     25.00000     -9.21432    150.0    150.0      0.0      0.0    -20.0    400.0      1.0
     455 2002 12 21 12 38  5 162  4.5670     79.60725    269.72581    150.76852    -25.00000     25.00000     -9.20141    150.0    150.0      0.0      0.0    -20.0    400.0      1.0
     456 2002 12 21 12 38  9 737  4.5752     79.61906    269.73041    150.69883    -25.00000     25.00000     -9.19504    150.0    150.0      0.0      0.0    -20.0    400.0      1.0
     457 2002 12 21 12 38 14 323  4.5865     79.60123    269.74250    150.63301    -25.00000     25.00000     -9.23832    150.0    150.0      0.0      0.0    -20.0    400.0      1.0
     458 2002 12 21 12 38 18 915  4.5914     79.50001    269.75390    150.56400    -25.00000     25.00000     -9.24139    150.0    150.0      0.0      0.0    -20.0    400.0      1.0
     459 2002 12 21 12 38 23 511  4.5966     79.38717    269.76227    150.49531    -25.00000     25.00000     -9.24823    150.0    150.0      0.0      0.0    -20.0    400.0      1.0
     460 2002 12 21 12 38 28 113  4.6012     79.16642    269.77415    150.42378    -25.00000     25.00000     -9.27854    150.0    150.0      0.0      0.0    -20.0    400.0      1.0
     461 2002 12 21 12 38 32 718  4.6055     78.93726    269.79108    150.35155    -25.00000     25.00000     -9.29457    150.0    150.0      0.0      0.0    -20.0    400.0      1.0
     462 2002 12 21 12 38 37 327  4.6092     78.75472    269.80628    150.27746    -25.00000     25.00000     -9.34944    150.0    150.0      0.0      0.0    -20.0    400.0      1.0
     463 2002 12 21 12 38 41 940  4.6124     78.58991    269.81764    150.19993    -25.00000     25.00000     -9.36467    150.0    150.0      0.0      0.0    -20.0    400.0      1.0
     464 2002 12 21 12 38 46 555  4.6153     78.38605    269.82568    150.12373    -25.00000     25.00000     -9.35593    150.0    150.0      0.0      0.0    -20.0    400.0      1.0
     465 2002 12 21 12 38 51 173  4.6179     78.21616    269.83572    150.04177    -25.00000     25.00000     -9.39797    150.0    150.0      0.0      0.0    -20.0    400.0      1.0
     466 2002 12 21 12 38 55 793  4.6203     78.08542    269.83944    149.96489    -25.00000     25.00000     -9.42284    150.0    150.0      0.0      0.0    -20.0    400.0      1.0
     467 2002 12 21 12 39  0 416  4.6226     78.01173    269.84506    149.88025    -25.00000     25.00000     -9.43871    150.0    150.0      0.0      0.0    -20.0    400.0      1.0
     468 2002 12 21 12 39  5  41  4.6247     77.98734    269.85896    149.79655    -25.00000     25.00000     -9.51007    150.0    150.0      0.0      0.0    -20.0    400.0      1.0
     469 2002 12 21 12 39  9 668  4.6268     77.92980    269.87455    149.71046    -25.00000     25.00000     -9.53280    150.0    150.0      0.0      0.0    -20.0    400.0      1.0
     470 2002 12 21 12 39 14 296  4.6289     77.84459    269.88510    149.62017    -25.00000     25.00000     -9.59508    150.0    150.0      0.0      0.0    -20.0    400.0      1.0
     471 2002 12 21 12 39 18 928  4.6311     77.78940    269.89941    149.53258    -25.00000     25.00000     -9.61820    150.0    150.0      0.0      0.0    -20.0    400.0      1.0
     472 2002 12 21 12 39 23 561  4.6334     77.76600    269.92001    149.43742    -25.00000     25.00000     -9.63775    150.0    150.0      0.0      0.0    -20.0    400.0      1.0
     473 2002 12 21 12 39 28 197  4.6359     77.77140    269.93720    149.35031    -25.00000     25.00000     -9.71569    150.0    150.0      0.0      0.0    -20.0    400.0      1.0
     474 2002 12 21 12 39 32 836  4.6388     77.85233    269.95177    149.25596    -25.00000     25.00000     -9.77042    150.0    150.0      0.0      0.0    -20.0    400.0      1.0
     475 2002 12 21 12 39 37 478  4.6421     77.96160    269.96926    149.16647    -25.00000     25.00000     -9.85347    150.0    150.0      0.0      0.0    -20.0    400.0      1.0
     476 2002 12 21 12 39 42 123  4.6454     77.95142    269.98429    149.07627    -25.00000     25.00000     -9.93054    150.0    150.0      0.0      0.0    -20.0    400.0      1.0
     477 2002 12 21 12 39 46 772  4.6491     77.94776    269.99925    148.98464    -25.00000     25.00000     -9.96977    150.0    150.0      0.0      0.0    -20.0    400.0      1.0
     478 2002 12 21 12 39 51 426  4.6534     77.95318    270.01683    148.90074    -25.00000     25.00000    -10.08213    150.0    150.0      0.0      0.0    -20.0    400.0      1.0
     479 2002 12 21 12 39 56  84  4.6584     77.99380    270.02464    148.81029    -25.00000     25.00000    -10.14480    150.0    150.0      0.0      0.0    -20.0    400.0      1.0
     480 2002 12 21 12 40  0 748  4.6644     78.14188    270.02942    148.73094    -25.00000     25.00000    -10.24235    150.0    150.0      0.0      0.0    -20.0    400.0      1.0
     481 2002 12 21 12 40  5 420  4.6714     78.39341    270.03798    148.64530    -25.00000     25.00000    -10.32650    150.0    150.0      0.0      0.0    -20.0    400.0      1.0
     482 2002 12 21 12 40 10  99  4.6795     78.43063    270.04523    148.57069    -25.00000     25.00000    -10.36195    150.0    150.0      0.0      0.0    -20.0    400.0      1.0
     483 2002 12 21 12 40 14 788  4.6889     78.45228    270.05690    148.49695    -25.00000     25.00000    -10.45178    150.0    150.0      0.0      0.0    -20.0    400.0      1.0
     484 2002 12 21 12 40 19 488  4.6994     78.47490    270.06760    148.42924    -25.00000     25.00000    -10.52906    150.0    150.0      0.0      0.0    -20.0    400.0      1.0
     485 2002 12 21 12 40 24 199  4.7111     78.59109    270.07191    148.37518    -25.00000     25.00000    -10.60403    150.0    150.0      0.0      0.0    -20.0    400.0      1.0
     486 2002 12 21 12 40 28 923  4.7239     78.80308    270.07435    148.31760    -25.00000     25.00000    -10.68307    150.0    150.0      0.0      0.0    -20.0    400.0      1.0
     487 2002 12 21 12 40 33 661  4.7383     78.66996    270.07243    148.27655    -25.00000     25.00000    -10.68493    150.0    150.0      0.0      0.0    -20.0    400.0      1.0
     488 2002 12 21 12 40 38 414  4.7535     78.43598    270.07207    148.23324    -25.00000     25.00000    -10.77894    150.0    150.0      0.0      0.0    -20.0    400.0      1.0
     489 2002 12 21 12 40 43 176  4.7613     77.91755    270.07990    148.20344    -25.00000     25.00000    -10.75879    150.0    150.0      0.0      0.0    -20.0    400.0      1.0
     490 2002 12 21 12 40 47 939  4.7630     77.68201    270.09893    148.18693    -25.00000     25.00000    -10.77897    150.0    150.0      0.0      0.0    -20.0    400.0      1.0
     491 2002 12 21 12 40 52 686  4.7473     77.44088    270.12794    148.16724    -25.00000     25.00000    -10.80730    150.0    150.0      0.0      0.0    -20.0    400.0      1.0
     492 2002 12 21 12 40 57 429  4.7428     77.04981    270.15366    148.17541    -25.00000     25.00000    -10.77092    150.0    150.0      0.0      0.0    -20.0    400.0      1.0
     493 2002 12 21 12 41  2 153  4.7247     76.84172    270.16871    148.17424    -25.00000     25.00000    -10.84534    150.0    150.0      0.0      0.0    -20.0    400.0      1.0
     494 2002 12 21 12 41  6 878  4.7250     76.26234    270.17674    148.19900    -25.00000     25.00000    -10.88601    150.0    150.0      0.0      0.0    -20.0    400.0      1.0
     495 2002 12 21 12 41 11 586  4.7077     76.06465    270.17125    148.22635    -25.00000     25.00000    -10.95477    150.0    150.0      0.0      0.0    -20.0    400.0      1.0
     496 2002 12 21 12 41 16 305  4.7194     75.88724    270.15758    148.25994    -25.00000     25.00000    -11.01332    150.0    150.0      0.0      0.0    -20.0    400.0      1.0
     497 2002 12 21 12 41 20 992  4.6864     75.45858    270.14730    148.30570    -25.00000     25.00000    -11.01464    150.0    150.0      0.0      0.0    -20.0    400.0      1.0
     498 2002 12 21 12 41 25 692  4.7001     75.18059    270.14916    148.36076    -25.00000     25.00000    -11.07177    150.0    150.0      0.0      0.0    -20.0    400.0      1.0
     499 2002 12 21 12 41 30 367  4.6746     74.88956    270.15702    148.42220    -25.00000     25.00000    -11.09176    150.0    150.0      0.0      0.0    -20.0    400.0      1.0
     500 2002 12 21 12 41 35  53  4.6869     74.50775    270.18098    148.50583    -25.00000     25.00000    -11.10276    150.0    150.0      0.0      0.0    -20.0    400.0      1.0
     501 2002 12 21 12 41 39 717  4.6638     74.25935    270.20892    148.59351    -25.00000     25.00000    -11.10770    150.0    150.0      0.0      0.0    -20.0    400.0      1.0
     502 2002 12 21 12 41 44 389  4.6717     74.04356    270.22282    148.70142    -25.00000     25.00000    -10.97488    150.0    150.0      0.0      0.0    -20.0    400.0      1.0
     503 2002 12 21 12 41 49  44  4.6547     73.65034    270.22689    148.81224    -25.00000     25.00000    -10.92116    150.0    150.0      0.0      0.0    -20.0    400.0      1.0
     504 2002 12 21 12 41 53 698  4.6543     73.38120    270.22802    148.93512    -25.00000     25.00000    -10.83425    150.0    150.0      0.0      0.0    -20.0    400.0      1.0
     505 2002 12 21 12 41 58 339  4.6411     73.29089    270.22224    149.05648    -25.00000     25.00000    -10.72561    150.0    150.0      0.0      0.0    -20.0    400.0      1.0
     506 2002 12 21 12 42  2 984  4.6449     72.92452    270.20964    149.18021    -25.00000     25.00000    -10.67100    150.0    150.0      0.0      0.0    -20.0    400.0      1.0
     507 2002 12 21 12 42  7 615  4.6312     72.62065    270.20525    149.30752    -25.00000     25.00000    -10.51087    150.0    150.0      0.0      0.0    -20.0    400.0      1.0
     508 2002 12 21 12 42 12 258  4.6429     72.50703    270.20852    149.42565    -25.00000     25.00000    -10.39578    150.0    150.0      0.0      0.0    -20.0    400.0      1.0
     509 2002 12 21 12 42 16 879  4.6209     72.37121    270.22729    149.54909    -25.00000     25.00000    -10.17094    150.0    150.0      0.0      0.0    -20.0    400.0      1.0
     510 2002 12 21 12 42 21 514  4.6353     72.04700    270.25094    149.69144    -25.00000     25.00000     -9.95248    150.0    150.0      0.0      0.0    -20.0    400.0      1.0
     511 2002 12 21 12 42 26 124  4.6098     71.90696    270.25896    149.80571    -25.00000     25.00000     -9.76737    150.0    150.0      0.0      0.0    -20.0    400.0      1.0
     512 2002 12 21 12 42 30 743  4.6188     71.93552    270.25526    149.90026    -25.00000     25.00000     -9.53527    150.0    150.0      0.0      0.0    -20.0    400.0      1.0
     513 2002 12 21 12 42 35 349  4.6063     71.75458    270.25703    149.97499    -25.00000     25.00000     -9.43282    150.0    150.0      0.0      0.0    -20.0    400.0      1.0
     514 2002 12 21 12 42 39 951  4.6013     71.70662    270.25600    150.04261    -25.00000     25.00000     -9.30987    150.0    150.0      0.0      0.0    -20.0    400.0      1.0
     515 2002 12 21 12 42 44 530  4.5796     71.72317    270.24805    150.12800    -25.00000     25.00000     -9.22336    150.0    150.0      0.0      0.0    -20.0    400.0      1.0
     516 2002 12 21 12 42 49 107  4.5769     71.74795    270.24042    150.19824    -25.00000     25.00000     -9.15057    150.0    150.0      0.0      0.0    -20.0    400.0      1.0
     517 2002 12 21 12 42 53 704  4.5965     71.76466    270.23505    150.28727    -25.00000     25.00000     -8.99207    150.0    150.0      0.0      0.0    -20.0    400.0      1.0
     518 2002 12 21 12 42 58 298  4.5944     71.77236    270.23684    150.37738    -25.00000     25.00000     -8.88810    150.0    150.0      0.0      0.0    -20.0    400.0      1.0
     519 2002 12 21 12 43  2 882  4.5837     71.78108    270.25011    150.43690    -25.00000     25.00000     -8.75165    150.0    150.0      0.0      0.0    -20.0    400.0      1.0
     520 2002 12 21 12 43  7 482  4.6005     71.78933    270.25184    150.49518    -25.00000     25.00000     -8.58529    150.0    150.0      0.0      0.0    -20.0    400.0      1.0
     521 2002 12 21 12 43 12  64  4.5821     71.79542    270.25667    150.54892    -25.00000     25.00000     -8.44658    150.0    150.0      0.0      0.0    -20.0    400.0      1.0
     522 2002 12 21 12 43 16 642  4.5774     71.80069    270.26880    150.59452    -25.00000     25.00000     -8.31069    150.0    150.0      0.0      0.0    -20.0    400.0      1.0
     523 2002 12 21 12 43 21 210  4.5684     71.80642    270.28436    150.64340    -25.00000     25.00000     -8.18287    150.0    150.0      0.0      0.0    -20.0    400.0      1.0
     524 2002 12 21 12 43 25 780  4.5696     71.81276    270.29372    150.70358    -25.00000     25.00000     -8.05492    150.0    150.0      0.0      0.0    -20.0    400.0      1.0
     525 2002 12 21 12 43 30 349  4.5697     71.81944    270.29578    150.74636    -25.00000     25.00000     -7.96312    150.0    150.0      0.0      0.0    -20.0    400.0      1.0
     526 2002 12 21 12 43 34 915  4.5652     71.82776    270.27566    150.77952    -25.00000     25.00000     -7.93432    150.0    150.0      0.0      0.0    -20.0    400.0      1.0
     527 2002 12 21 12 43 39 486  4.5712     71.83892    270.25214    150.83207    -25.00000     25.00000     -7.91021    150.0    150.0      0.0      0.0    -20.0    400.0      1.0
     528 2002 12 21 12 43 44  28  4.5420     71.85193    270.23363    150.87647    -25.00000     25.00000     -7.94364    150.0    150.0      0.0      0.0    -20.0    400.0      1.0
     529 2002 12 21 12 43 48 589  4.5613     71.86636    270.22453    150.93670    -25.00000     25.00000     -8.01777    150.0    150.0      0.0      0.0    -20.0    400.0      1.0
     530 2002 12 21 12 43 53 134  4.5451     71.88162    270.22935    151.02070    -25.00000     25.00000     -7.99833    150.0    150.0      0.0      0.0    -20.0    400.0      1.0
     531 2002 12 21 12 43 57 672  4.5380     71.89734    270.24540    151.07739    -25.00000     25.00000     -7.93325    150.0    150.0      0.0      0.0    -20.0    400.0      1.0
     532 2002 12 21 12 44  2 219  4.5469     71.91385    270.27520    151.13885    -25.00000     25.00000     -7.76985    150.0    150.0      0.0      0.0    -20.0    400.0      1.0
     533 2002 12 21 12 44  6 736  4.5170     71.93505    270.30249    151.18701    -25.00000     25.00000     -7.67360    150.0    150.0      0.0      0.0    -20.0    400.0      1.0
     534 2002 12 21 12 44 11 274  4.5384     71.96898    270.32665    151.20257    -25.00000     25.00000     -7.53830    150.0    150.0      0.0      0.0    -20.0    400.0      1.0
     535 2002 12 21 12 44 15 803  4.5283     72.02781    270.32902    151.21186    -25.00000     25.00000     -7.44338    150.0    150.0      0.0      0.0    -20.0    400.0      1.0
     536 2002 12 21 12 44 20 323  4.5203     72.16911    270.31768    151.21749    -25.00000     25.00000     -7.41965    150.0    150.0      0.0      0.0    -20.0    400.0      1.0
     537 2002 12 21 12 44 24 845  4.5217     72.32462    270.28658    151.22058    -25.00000     25.00000     -7.34399    150.0    150.0      0.0      0.0    -20.0    400.0      1.0
     538 2002 12 21 12 44 29 363  4.5179     72.43546    270.25772    151.22346    -25.00000     25.00000     -7.30200    150.0    150.0      0.0      0.0    -20.0    400.0      1.0
     539 2002 12 21 12 44 33 887  4.5243     72.59224    270.24479    151.22370    -25.00000     25.00000     -7.22340    150.0    150.0      0.0      0.0    -20.0    400.0      1.0
     540 2002 12 21 12 44 38 411  4.5238     72.78167    270.25630    151.22263    -25.00000     25.00000     -7.12711    150.0    150.0      0.0      0.0    -20.0    400.0      1.0
     541 2002 12 21 12 44 42 930  4.5191     73.19191    270.28019    151.22028    -25.00000     25.00000     -7.05254    150.0    150.0      0.0      0.0    -20.0    400.0      1.0
     542 2002 12 21 12 44 47 445  4.5155     73.83015    270.31968    151.21547    -25.00000     25.00000     -6.93812    150.0    150.0      0.0      0.0    -20.0    400.0      1.0
     543 2002 12 21 12 44 51 971  4.5256     74.13194    270.35192    151.20602    -25.00000     25.00000     -6.84070    150.0    150.0      0.0      0.0    -20.0    400.0      1.0
     544 2002 12 21 12 44 56 499  4.5285     74.26497    270.36417    151.19395    -25.00000     25.00000     -6.74921    150.0    150.0      0.0      0.0    -20.0    400.0      1.0
     545 2002 12 21 12 45  1  12  4.5121     74.20171    270.36408    151.17849    -25.00000     25.00000     -6.72356    150.0    150.0      0.0      0.0    -20.0    400.0      1.0
     546 2002 12 21 12 45  5 540  4.5286     74.23718    270.35218    151.16542    -25.00000     25.00000     -6.72916    150.0    150.0      0.0      0.0    -20.0    400.0      1.0
     547 2002 12 21 12 45 10  72  4.5318     74.30187    270.31407    151.14609    -25.00000     25.00000     -6.73447    150.0    150.0      0.0      0.0    -20.0    400.0      1.0
     548 2002 12 21 12 45 14 603  4.5307     74.35718    270.26936    151.13004    -25.00000     25.00000     -6.77277    150.0    150.0      0.0      0.0    -20.0    400.0      1.0
     549 2002 12 21 12 45 19 133  4.5304     74.37040    270.24484    151.11204    -25.00000     25.00000     -6.77814    150.0    150.0      0.0      0.0    -20.0    400.0      1.0
     550 2002 12 21 12 45 23 662  4.5289     74.42315    270.23753    151.09432    -25.00000     25.00000     -6.79608    150.0    150.0      0.0      0.0    -20.0    400.0      1.0
     551 2002 12 21 12 45 28 189  4.5272     74.54853    270.24089    151.07420    -25.00000     25.00000     -6.82951    150.0    150.0      0.0      0.0    -20.0    400.0      1.0
     552 2002 12 21 12 45 32 714  4.5246     74.65020    270.26058    151.05096    -25.00000     25.00000     -6.82447    150.0    150.0      0.0      0.0    -20.0    400.0      1.0
     553 2002 12 21 12 45 37 239  4.5254     74.72366    270.27544    151.02560    -25.00000     25.00000     -6.88343    150.0    150.0      0.0      0.0    -20.0    400.0      1.0
     554 2002 12 21 12 45 41 765  4.5254     74.85695    270.28534    150.99839    -25.00000     25.00000     -6.92037    150.0    150.0      0.0      0.0    -20.0    400.0      1.0
     555 2002 12 21 12 45 46 290  4.5258     75.15329    270.30139    150.97165    -25.00000     25.00000     -6.96786    150.0    150.0      0.0      0.0    -20.0    400.0      1.0
     556 2002 12 21 12 45 50 817  4.5264     75.25835    270.31456    150.94114    -25.00000     25.00000     -7.07226    150.0    150.0      0.0      0.0    -20.0    400.0      1.0
     557 2002 12 21 12 45 55 344  4.5271     75.56204    270.32036    150.91279    -25.00000     25.00000     -7.18533    150.0    150.0      0.0      0.0    -20.0    400.0      1.0
     558 2002 12 21 12 45 59 872  4.5279     75.99306    270.32300    150.87964    -25.00000     25.00000     -7.32606    150.0    150.0      0.0      0.0    -20.0    400.0      1.0
     559 2002 12 21 12 46  4 400  4.5287     76.13240    270.32453    150.84755    -25.00000     25.00000     -7.47236    150.0    150.0      0.0      0.0    -20.0    400.0      1.0
     560 2002 12 21 12 46  8 930  4.5296     76.65285    270.32241    150.81382    -25.00000     25.00000     -7.63049    150.0    150.0      0.0      0.0    -20.0    400.0      1.0
     561 2002 12 21 12 46 13 460  4.5304     77.38795    270.32462    150.77901    -25.00000     25.00000     -7.74298    150.0    150.0      0.0      0.0    -20.0    400.0      1.0
     562 2002 12 21 12 46 17 992  4.5313     77.61767    270.33142    150.74261    -25.00000     25.00000     -7.87929    150.0    150.0      0.0      0.0    -20.0    400.0      1.0
     563 2002 12 21 12 46 22 524  4.5321     78.45040    270.33799    150.70593    -25.00000     25.00000     -8.03014    150.0    150.0      0.0      0.0    -20.0    400.0      1.0
     564 2002 12 21 12 46 27  57  4.5329     78.76437    270.34858    150.66664    -25.00000     25.00000     -8.15608    150.0    150.0      0.0      0.0    -20.0    400.0      1.0
     565 2002 12 21 12 46 31 590  4.5336     78.82586    270.36471    150.62727    -25.00000     25.00000     -8.31118    150.0    150.0      0.0      0.0    -20.0    400.0      1.0
     566 2002 12 21 12 46 36 125  4.5344     78.79372    270.37928    150.58706    -25.00000     25.00000     -8.43265    150.0    150.0      0.0      0.0    -20.0    400.0      1.0
     567 2002 12 21 12 46 40 660  4.5350     78.81510    270.38683    150.54339    -25.00000     25.00000     -8.61366    150.0    150.0      0.0      0.0    -20.0    400.0      1.0
     568 2002 12 21 12 46 45 195  4.5356     78.90875    270.38936    150.50183    -25.00000     25.00000     -8.77201    150.0    150.0      0.0      0.0    -20.0    400.0      1.0
     569 2002 12 21 12 46 49 732  4.5362     78.63969    270.38461    150.45451    -25.00000     25.00000     -8.88354    150.0    150.0      0.0      0.0    -20.0    400.0      1.0
     570 2002 12 21 12 46 54 268  4.5368     78.26632    270.37215    150.41020    -25.00000     25.00000     -9.07500    150.0    150.0      0.0      0.0    -20.0    400.0      1.0
     571 2002 12 21 12 46 58 806  4.5374     77.97789    270.35893    150.36230    -25.00000     25.00000     -9.16756    150.0    150.0      0.0      0.0    -20.0    400.0      1.0
     572 2002 12 21 12 47  3 344  4.5380     77.79982    270.35960    150.31336    -25.00000     25.00000     -9.30978    150.0    150.0      0.0      0.0    -20.0    400.0      1.0
     573 2002 12 21 12 47  7 882  4.5386     77.54989    270.37421    150.26278    -25.00000     25.00000     -9.46380    150.0    150.0      0.0      0.0    -20.0    400.0      1.0
     574 2002 12 21 12 47 12 422  4.5392     77.22961    270.40705    150.21105    -25.00000     25.00000     -9.50738    150.0    150.0      0.0      0.0    -20.0    400.0      1.0
     575 2002 12 21 12 47 16 962  4.5399     76.99579    270.44744    150.15623    -25.00000     25.00000     -9.68646    150.0    150.0      0.0      0.0    -20.0    400.0      1.0
     576 2002 12 21 12 47 21 502  4.5405     76.69383    270.47432    150.10189    -25.00000     25.00000     -9.81150    150.0    150.0      0.0      0.0    -20.0    400.0      1.0
     577 2002 12 21 12 47 26  43  4.5411     76.40446    270.49145    150.04433    -25.00000     25.00000     -9.95034    150.0    150.0      0.0      0.0    -20.0    400.0      1.0
     578 2002 12 21 12 47 30 585  4.5417     76.27314    270.49402    149.98791    -25.00000     25.00000    -10.14690    150.0    150.0      0.0      0.0    -20.0    400.0      1.0
     579 2002 12 21 12 47 35 127  4.5423     76.17207    270.48723    149.93054    -25.00000     25.00000    -10.24644    150.0    150.0      0.0      0.0    -20.0    400.0      1.0
     580 2002 12 21 12 47 39 670  4.5429     75.90787    270.47467    149.86975    -25.00000     25.00000    -10.39689    150.0    150.0      0.0      0.0    -20.0    400.0      1.0
     581 2002 12 21 12 47 44 214  4.5435     75.80365    270.46932    149.81333    -25.00000     25.00000    -10.52665    150.0    150.0      0.0      0.0    -20.0    400.0      1.0
     582 2002 12 21 12 47 48 758  4.5441     75.90878    270.48100    149.75373    -25.00000     25.00000    -10.61398    150.0    150.0      0.0      0.0    -20.0    400.0      1.0
     583 2002 12 21 12 47 53 303  4.5447     75.57709    270.50066    149.69754    -25.00000     25.00000    -10.74309    150.0    150.0      0.0      0.0    -20.0    400.0      1.0
     584 2002 12 21 12 47 57 848  4.5454     75.41670    270.53741    149.63637    -25.00000     25.00000    -10.83415    150.0    150.0      0.0      0.0    -20.0    400.0      1.0
     585 2002 12 21 12 48  2 394  4.5460     74.56191    270.57369    149.57798    -25.00000     25.00000    -10.91360    150.0    150.0      0.0      0.0    -20.0    400.0      1.0
     586 2002 12 21 12 48  6 941  4.5466     74.06558    270.59476    149.51489    -25.00000     25.00000    -11.04073    150.0    150.0      0.0      0.0    -20.0    400.0      1.0
     587 2002 12 21 12 48 11 488  4.5473     73.69455    270.60361    149.45366    -25.00000     25.00000    -11.10174    150.0    150.0      0.0      0.0    -20.0    400.0      1.0
     588 2002 12 21 12 48 16  36  4.5480     73.04979    270.60848    149.39006    -25.00000     25.00000    -11.27829    150.0    150.0      0.0      0.0    -20.0    400.0      1.0
     589 2002 12 21 12 48 20 585  4.5488     72.82055    270.60725    149.32570    -25.00000     25.00000    -11.36982    150.0    150.0      0.0      0.0    -20.0    400.0      1.0
     590 2002 12 21 12 48 25 134  4.5498     72.77155    270.59344    149.26326    -25.00000     25.00000    -11.48925    150.0    150.0      0.0      0.0    -20.0    400.0      1.0
     591 2002 12 21 12 48 29 685  4.5509     72.38152    270.58372    149.19660    -25.00000     25.00000    -11.64410    150.0    150.0      0.0      0.0    -20.0    400.0      1.0
     592 2002 12 21 12 48 34 238  4.5522     72.24093    270.58301    149.13335    -25.00000     25.00000    -11.70983    150.0    150.0      0.0      0.0    -20.0    400.0      1.0
     593 2002 12 21 12 48 38 791  4.5538     72.22459    270.58920    149.06592    -25.00000     25.00000    -11.88449    150.0    150.0      0.0      0.0    -20.0    400.0      1.0
     594 2002 12 21 12 48 43 347  4.5559     71.95764    270.61022    149.00008    -25.00000     25.00000    -11.93132    150.0    150.0      0.0      0.0    -20.0    400.0      1.0
     595 2002 12 21 12 48 47 906  4.5584     71.90726    270.63199    148.93334    -25.00000     25.00000    -12.08131    150.0    150.0      0.0      0.0    -20.0    400.0      1.0
     596 2002 12 21 12 48 52 467  4.5615     71.89044    270.64882    148.86506    -25.00000     25.00000    -12.17053    150.0    150.0      0.0      0.0    -20.0    400.0      1.0
     597 2002 12 21 12 48 57  32  4.5654     71.66942    270.66833    148.80159    -25.00000     25.00000    -12.26088    150.0    150.0      0.0      0.0    -20.0    400.0      1.0
     598 2002 12 21 12 49  1 603  4.5701     71.65841    270.69314    148.73394    -25.00000     25.00000    -12.39671    150.0    150.0      0.0      0.0    -20.0    400.0      1.0
     599 2002 12 21 12 49  6 178  4.5758     71.71400    270.71306    148.67240    -25.00000     25.00000    -12.48744    150.0    150.0      0.0      0.0    -20.0    400.0      1.0
     600 2002 12 21 12 49 10 761  4.5826     71.56280    270.71484    148.60895    -25.00000     25.00000    -12.62446    150.0    150.0      0.0      0.0    -20.0    400.0      1.0
     601 2002 12 21 12 49 15 352  4.5906     71.53598    270.70555    148.54868    -25.00000     25.00000    -12.73485    150.0    150.0      0.0      0.0    -20.0    400.0      1.0
     602 2002 12 21 12 49 19 952  4.6000     71.56313    270.68221    148.49309    -25.00000     25.00000    -12.86550    150.0    150.0      0.0      0.0    -20.0    400.0      1.0
     603 2002 12 21 12 49 24 562  4.6108     71.57748    270.65428    148.43595    -25.00000     25.00000    -12.99784    150.0    150.0      0.0      0.0    -20.0    400.0      1.0
     604 2002 12 21 12 49 29 186  4.6235     71.57852    270.64781    148.38996    -25.00000     25.00000    -13.07132    150.0    150.0      0.0      0.0    -20.0    400.0      1.0
     605 2002 12 21 12 49 33 823  4.6375     71.57672    270.65769    148.34337    -25.00000     25.00000    -13.11498    150.0    150.0      0.0      0.0    -20.0    400.0      1.0
     606 2002 12 21 12 49 38 477  4.6532     71.58142    270.68560    148.30484    -25.00000     25.00000    -13.12028    150.0    150.0      0.0      0.0    -20.0    400.0      1.0
     607 2002 12 21 12 49 43 147  4.6700     71.58263    270.72741    148.27707    -25.00000     25.00000    -13.12897    150.0    150.0      0.0      0.0    -20.0    400.0      1.0
     608 2002 12 21 12 49 47 834  4.6871     71.57150    270.75750    148.24638    -25.00000     25.00000    -13.17288    150.0    150.0      0.0      0.0    -20.0    400.0      1.0
     609 2002 12 21 12 49 52 529  4.6958     71.56138    270.77678    148.23228    -25.00000     25.00000    -13.20204    150.0    150.0      0.0      0.0    -20.0    400.0      1.0
     610 2002 12 21 12 49 57 227  4.6972     71.55152    270.76809    148.21876    -25.00000     25.00000    -13.24701    150.0    150.0      0.0      0.0    -20.0    400.0      1.0
     611 2002 12 21 12 50  1 949  4.7225     71.54212    270.74158    148.21678    -25.00000     25.00000    -13.22861    150.0    150.0      0.0      0.0    -20.0    400.0      1.0
     612 2002 12 21 12 50  6 659  4.7102     71.53330    270.70682    148.22835    -25.00000     25.00000    -13.28487    150.0    150.0      0.0      0.0    -20.0    400.0      1.0
     613 2002 12 21 12 50 11 359  4.6996     71.52502    270.67726    148.23618    -25.00000     25.00000    -13.27022    150.0    150.0      0.0      0.0    -20.0    400.0      1.0
     614 2002 12 21 12 50 16  53  4.6937     71.51747    270.67582    148.25963    -25.00000     25.00000    -13.27794    150.0    150.0      0.0      0.0    -20.0    400.0      1.0
     615 2002 12 21 12 50 20 729  4.6761     71.51085    270.69373    148.28929    -25.00000     25.00000    -13.21579    150.0    150.0      0.0      0.0    -20.0    400.0      1.0
     616 2002 12 21 12 50 25 403  4.6742     71.50537    270.73432    148.32520    -25.00000     25.00000    -13.12499    150.0    150.0      0.0      0.0    -20.0    400.0      1.0
     617 2002 12 21 12 50 30  58  4.6549     71.50065    270.76976    148.37560    -25.00000     25.00000    -13.15236    150.0    150.0      0.0      0.0    -20.0    400.0      1.0
     618 2002 12 21 12 50 34 714  4.6559     71.49621    270.79118    148.44044    -25.00000     25.00000    -13.11791    150.0    150.0      0.0      0.0    -20.0    400.0      1.0
     619 2002 12 21 12 50 39 351  4.6370     71.49167    270.79715    148.51325    -25.00000     25.00000    -13.00141    150.0    150.0      0.0      0.0    -20.0    400.0      1.0
     620 2002 12 21 12 50 43 989  4.6386     71.48695    270.79028    148.60453    -25.00000     25.00000    -12.97020    150.0    150.0      0.0      0.0    -20.0    400.0      1.0
     621 2002 12 21 12 50 48 610  4.6208     71.48224    270.77035    148.69066    -25.00000     25.00000    -12.86281    150.0    150.0      0.0      0.0    -20.0    400.0      1.0
     622 2002 12 21 12 50 53 233  4.6229     71.47751    270.74559    148.78792    -25.00000     25.00000    -12.81568    150.0    150.0      0.0      0.0    -20.0    400.0      1.0
     623 2002 12 21 12 50 57 839  4.6064     71.47275    270.72888    148.88070    -25.00000     25.00000    -12.66089    150.0    150.0      0.0      0.0    -20.0    400.0      1.0
     624 2002 12 21 12 51  2 449  4.6093     71.46785    270.72375    148.98321    -25.00000     25.00000    -12.57185    150.0    150.0      0.0      0.0    -20.0    400.0      1.0
     625 2002 12 21 12 51  7  43  4.5944     71.46299    270.73046    149.07885    -25.00000     25.00000    -12.39227    150.0    150.0      0.0      0.0    -20.0    400.0      1.0
     626 2002 12 21 12 51 11 642  4.5988     71.45844    270.75526    149.18195    -25.00000     25.00000    -12.18510    150.0    150.0      0.0      0.0    -20.0    400.0      1.0
     627 2002 12 21 12 51 16 228  4.5865     71.45448    270.77331    149.28201    -25.00000     25.00000    -11.99239    150.0    150.0      0.0      0.0    -20.0    400.0      1.0
     628 2002 12 21 12 51 20 820  4.5913     71.45189    270.77792    149.38883    -25.00000     25.00000    -11.76648    150.0    150.0      0.0      0.0    -20.0    400.0      1.0
     629 2002 12 21 12 51 25 404  4.5840     71.45106    270.78484    149.49693    -25.00000     25.00000    -11.54720    150.0    150.0      0.0      0.0    -20.0    400.0      1.0
     630 2002 12 21 12 51 29 992  4.5878     71.45204    270.78642    149.60647    -25.00000     25.00000    -11.35875    150.0    150.0      0.0      0.0    -20.0    400.0      1.0
     631 2002 12 21 12 51 34 579  4.5871     71.45416    270.77816    149.72345    -25.00000     25.00000    -11.13136    150.0    150.0      0.0      0.0    -20.0    400.0      1.0
     632 2002 12 21 12 51 39 168  4.5890     71.45852    270.76250    149.83799    -25.00000     25.00000    -10.95581    150.0    150.0      0.0      0.0    -20.0    400.0      1.0
     633 2002 12 21 12 51 43 760  4.5925     71.46507    270.74660    149.96362    -25.00000     25.00000    -10.76133    150.0    150.0      0.0      0.0    -20.0    400.0      1.0
     634 2002 12 21 12 51 48 358  4.5978     71.47426    270.73654    150.07953    -25.00000     25.00000    -10.51824    150.0    150.0      0.0      0.0    -20.0    400.0      1.0
     635 2002 12 21 12 51 52 957  4.5992     71.48693    270.73140    150.20545    -25.00000     25.00000    -10.30689    150.0    150.0      0.0      0.0    -20.0    400.0      1.0
     636 2002 12 21 12 51 57 553  4.5957     71.50298    270.73400    150.32573    -25.00000     25.00000    -10.06729    150.0    150.0      0.0      0.0    -20.0    400.0      1.0
     637 2002 12 21 12 52  2 157  4.6040     71.52289    270.74527    150.45267    -25.00000     25.00000     -9.80799    150.0    150.0      0.0      0.0    -20.0    400.0      1.0
     638 2002 12 21 12 52  6 757  4.5999     71.56364    270.76538    150.57008    -25.00000     25.00000     -9.54386    150.0    150.0      0.0      0.0    -20.0    400.0      1.0
     639 2002 12 21 12 52 11 366  4.6097     71.61526    270.78454    150.67784    -25.00000     25.00000     -9.24727    150.0    150.0      0.0      0.0    -20.0    400.0      1.0
     640 2002 12 21 12 52 15 968  4.6012     71.63892    270.79835    150.78151    -25.00000     25.00000     -9.08791    150.0    150.0      0.0      0.0    -20.0    400.0      1.0
     641 2002 12 21 12 52 20 569  4.6009     71.66993    270.80127    150.87772    -25.00000     25.00000     -8.94004    150.0    150.0      0.0      0.0    -20.0    400.0      1.0
     642 2002 12 21 12 52 25 172  4.6039     71.71225    270.79145    150.96694    -25.00000     25.00000     -8.79579    150.0    150.0      0.0      0.0    -20.0    400.0      1.0
     643 2002 12 21 12 52 29 769  4.5968     71.78001    270.76371    151.04723    -25.00000     25.00000     -8.68746    150.0    150.0      0.0      0.0    -20.0    400.0      1.0
     644 2002 12 21 12 52 34 369  4.6002     71.87188    270.73430    151.11930    -25.00000     25.00000     -8.55685    150.0    150.0      0.0      0.0    -20.0    400.0      1.0
     645 2002 12 21 12 52 38 970  4.6008     71.97488    270.71425    151.18507    -25.00000     25.00000     -8.43101    150.0    150.0      0.0      0.0    -20.0    400.0      1.0
     646 2002 12 21 12 52 43 571  4.6012     72.13404    270.71564    151.24428    -25.00000     25.00000     -8.34485    150.0    150.0      0.0      0.0    -20.0    400.0      1.0
     647 2002 12 21 12 52 48 174  4.6029     72.52343    270.73098    151.29781    -25.00000     25.00000     -8.19078    150.0    150.0      0.0      0.0    -20.0    400.0      1.0
     648 2002 12 21 12 52 52 778  4.6036     72.68566    270.76914    151.34198    -25.00000     25.00000     -8.11001    150.0    150.0      0.0      0.0    -20.0    400.0      1.0
     649 2002 12 21 12 52 57 383  4.6052     72.89793    270.80362    151.37363    -25.00000     25.00000     -8.01415    150.0    150.0      0.0      0.0    -20.0    400.0      1.0
     650 2002 12 21 12 53  1 989  4.6061     73.13550    270.82462    151.39191    -25.00000     25.00000     -7.91598    150.0    150.0      0.0      0.0    -20.0    400.0      1.0
     651 2002 12 21 12 53  6 596  4.6070     74.07271    270.82710    151.40046    -25.00000     25.00000     -7.90576    150.0    150.0      0.0      0.0    -20.0    400.0      1.0
     652 2002 12 21 12 53 11 204  4.6076     74.36203    270.81603    151.41056    -25.00000     25.00000     -7.87586    150.0    150.0      0.0      0.0    -20.0    400.0      1.0
     653 2002 12 21 12 53 15 812  4.6082     74.64351    270.79508    151.41709    -25.00000     25.00000     -7.86690    150.0    150.0      0.0      0.0    -20.0    400.0      1.0
     654 2002 12 21 12 53 20 421  4.6087     75.66270    270.77236    151.42722    -25.00000     25.00000     -7.88168    150.0    150.0      0.0      0.0    -20.0    400.0      1.0
     655 2002 12 21 12 53 25  30  4.6091     76.53252    270.76265    151.43462    -25.00000     25.00000     -7.82104    150.0    150.0      0.0      0.0    -20.0    400.0      1.0
     656 2002 12 21 12 53 29 640  4.6097     76.89485    270.76132    151.44248    -25.00000     25.00000     -7.81701    150.0    150.0      0.0      0.0    -20.0    400.0      1.0
     657 2002 12 21 12 53 34 250  4.6103     77.94245    270.77595    151.44910    -25.00000     25.00000     -7.78767    150.0    150.0      0.0      0.0    -20.0    400.0      1.0
     658 2002 12 21 12 53 38 861  4.6108     79.32282    270.80170    151.45640    -25.00000     25.00000     -7.73943    150.0    150.0      0.0      0.0    -20.0    400.0      1.0
     659 2002 12 21 12 53 43 472  4.6112     79.44596    270.81808    151.46038    -25.00000     25.00000     -7.76387    150.0    150.0      0.0      0.0    -20.0    400.0      1.0
     660 2002 12 21 12 53 48  83  4.6116     79.49122    270.82253    151.46562    -25.00000     25.00000     -7.73381    150.0    150.0      0.0      0.0    -20.0    400.0      1.0
     661 2002 12 21 12 53 52 695  4.6121     79.49690    270.82001    151.46785    -25.00000     25.00000     -7.77296    150.0    150.0      0.0      0.0    -20.0    400.0      1.0
     662 2002 12 21 12 53 57 308  4.6124     79.70415    270.81446    151.46990    -25.00000     25.00000     -7.79816    150.0    150.0      0.0      0.0    -20.0    400.0      1.0
     663 2002 12 21 12 54  1 920  4.6126     79.89393    270.80358    151.47146    -25.00000     25.00000     -7.79603    150.0    150.0      0.0      0.0    -20.0    400.0      1.0
     664 2002 12 21 12 54  6 533  4.6128     79.97756    270.79706    151.46993    -25.00000     25.00000     -7.83692    150.0    150.0      0.0      0.0    -20.0    400.0      1.0
     665 2002 12 21 12 54 11 146  4.6130     80.05763    270.79827    151.47012    -25.00000     25.00000     -7.81879    150.0    150.0      0.0      0.0    -20.0    400.0      1.0
     666 2002 12 21 12 54 15 759  4.6132     80.10904    270.80849    151.46663    -25.00000     25.00000     -7.84790    150.0    150.0      0.0      0.0    -20.0    400.0      1.0
     667 2002 12 21 12 54 20 373  4.6132     80.15143    270.83245    151.46402    -25.00000     25.00000     -7.84913    150.0    150.0      0.0      0.0    -20.0    400.0      1.0
     668 2002 12 21 12 54 24 986  4.6132     80.19682    270.84521    151.45832    -25.00000     25.00000     -7.84727    150.0    150.0      0.0      0.0    -20.0    400.0      1.0
     669 2002 12 21 12 54 29 599  4.6132     80.24401    270.84441    151.45268    -25.00000     25.00000     -7.88105    150.0    150.0      0.0      0.0    -20.0    400.0      1.0
     670 2002 12 21 12 54 34 212  4.6131     80.31571    270.84801    151.44300    -25.00000     25.00000     -7.88666    150.0    150.0      0.0      0.0    -20.0    400.0      1.0
     671 2002 12 21 12 54 38 825  4.6130     80.41099    270.85079    151.43464    -25.00000     25.00000     -7.93566    150.0    150.0      0.0      0.0    -20.0    400.0      1.0
     672 2002 12 21 12 54 43 438  4.6128     80.44381    270.85045    151.42118    -25.00000     25.00000     -7.98359    150.0    150.0      0.0      0.0    -20.0    400.0      1.0
     673 2002 12 21 12 54 48  51  4.6127     80.14975    270.85456    151.40953    -25.00000     25.00000     -8.01792    150.0    150.0      0.0      0.0    -20.0    400.0      1.0
     674 2002 12 21 12 54 52 663  4.6125     79.97921    270.85435    151.39280    -25.00000     25.00000     -8.05264    150.0    150.0      0.0      0.0    -20.0    400.0      1.0
     675 2002 12 21 12 54 57 275  4.6122     80.03640    270.85033    151.37619    -25.00000     25.00000     -8.11395    150.0    150.0      0.0      0.0    -20.0    400.0      1.0
     676 2002 12 21 12 55  1 887  4.6119     79.95458    270.84724    151.35675    -25.00000     25.00000     -8.16806    150.0    150.0      0.0      0.0    -20.0    400.0      1.0
     677 2002 12 21 12 55  6 499  4.6116     79.85508    270.84761    151.33613    -25.00000     25.00000     -8.19876    150.0    150.0      0.0      0.0    -20.0    400.0      1.0
     678 2002 12 21 12 55 11 110  4.6113     79.81950    270.85611    151.31236    -25.00000     25.00000     -8.23533    150.0    150.0      0.0      0.0    -20.0    400.0      1.0
     679 2002 12 21 12 55 15 721  4.6110     79.83464    270.87315    151.28742    -25.00000     25.00000     -8.25461    150.0    150.0      0.0      0.0    -20.0    400.0      1.0
     680 2002 12 21 12 55 20 332  4.6107     79.81873    270.89951    151.25815    -25.00000     25.00000     -8.30349    150.0    150.0      0.0      0.0    -20.0    400.0      1.0
     681 2002 12 21 12 55 24 942  4.6104     79.74134    270.92320    151.22793    -25.00000     25.00000     -8.31633    150.0    150.0      0.0      0.0    -20.0    400.0      1.0
     682 2002 12 21 12 55 29 552  4.6099     79.67284    270.94497    151.19337    -25.00000     25.00000     -8.40156    150.0    150.0      0.0      0.0    -20.0    400.0      1.0
     683 2002 12 21 12 55 34 161  4.6091     79.55424    270.94803    151.15719    -25.00000     25.00000     -8.46417    150.0    150.0      0.0      0.0    -20.0    400.0      1.0
     684 2002 12 21 12 55 38 770  4.6085     79.30191    270.93723    151.11904    -25.00000     25.00000     -8.53636    150.0    150.0      0.0      0.0    -20.0    400.0      1.0
     685 2002 12 21 12 55 43 377  4.6078     79.06579    270.91474    151.07651    -25.00000     25.00000     -8.69573    150.0    150.0      0.0      0.0    -20.0    400.0      1.0
     686 2002 12 21 12 55 47 985  4.6072     78.90851    270.89098    151.03479    -25.00000     25.00000     -8.75250    150.0    150.0      0.0      0.0    -20.0    400.0      1.0
     687 2002 12 21 12 55 52 591  4.6066     78.82451    270.88806    150.98643    -25.00000     25.00000     -8.88191    150.0    150.0      0.0      0.0    -20.0    400.0      1.0
     688 2002 12 21 12 55 57 197  4.6061     78.78895    270.90539    150.93902    -25.00000     25.00000     -8.95330    150.0    150.0      0.0      0.0    -20.0    400.0      1.0
     689 2002 12 21 12 56  1 803  4.6057     78.75501    270.93863    150.88624    -25.00000     25.00000     -8.99177    150.0    150.0      0.0      0.0    -20.0    400.0      1.0
     690 2002 12 21 12 56  6 409  4.6054     78.30067    270.97213    150.83111    -25.00000     25.00000     -9.11035    150.0    150.0      0.0      0.0    -20.0    400.0      1.0
     691 2002 12 21 12 56 11  14  4.6052     77.72752    270.99391    150.77284    -25.00000     25.00000     -9.20947    150.0    150.0      0.0      0.0    -20.0    400.0      1.0
     692 2002 12 21 12 56 15 619  4.6053     77.32827    271.00421    150.71081    -25.00000     25.00000     -9.32597    150.0    150.0      0.0      0.0    -20.0    400.0      1.0
     693 2002 12 21 12 56 20 225  4.6055     76.99209    271.00577    150.65000    -25.00000     25.00000     -9.47734    150.0    150.0      0.0      0.0    -20.0    400.0      1.0
     694 2002 12 21 12 56 24 831  4.6062     76.40158    271.00258    150.58427    -25.00000     25.00000     -9.55496    150.0    150.0      0.0      0.0    -20.0    400.0      1.0
     695 2002 12 21 12 56 29 438  4.6072     76.04608    270.99415    150.51706    -25.00000     25.00000     -9.72340    150.0    150.0      0.0      0.0    -20.0    400.0      1.0
     696 2002 12 21 12 56 34  47  4.6087     76.00032    270.99118    150.44816    -25.00000     25.00000     -9.84859    150.0    150.0      0.0      0.0    -20.0    400.0      1.0
     697 2002 12 21 12 56 38 658  4.6109     75.50041    270.99347    150.37758    -25.00000     25.00000     -9.92934    150.0    150.0      0.0      0.0    -20.0    400.0      1.0
     698 2002 12 21 12 56 43 271  4.6138     75.09983    271.00615    150.30635    -25.00000     25.00000    -10.06487    150.0    150.0      0.0      0.0    -20.0    400.0      1.0
     699 2002 12 21 12 56 47 889  4.6176     75.02043    271.03487    150.23081    -25.00000     25.00000    -10.12380    150.0    150.0      0.0      0.0    -20.0    400.0      1.0
     700 2002 12 21 12 56 52 512  4.6225     74.72501    271.05379    150.16206    -25.00000     25.00000    -10.25925    150.0    150.0      0.0      0.0    -20.0    400.0      1.0
     701 2002 12 21 12 56 57 140  4.6285     74.33419    271.06502    150.08523    -25.00000     25.00000    -10.36477    150.0    150.0      0.0      0.0    -20.0    400.0      1.0
     702 2002 12 21 12 57  1 776  4.6357     74.03007    271.08180    150.01644    -25.00000     25.00000    -10.44121    150.0    150.0      0.0      0.0    -20.0    400.0      1.0
     703 2002 12 21 12 57  6 420  4.6444     73.78716    271.09008    149.94201    -25.00000     25.00000    -10.58785    150.0    150.0      0.0      0.0    -20.0    400.0      1.0
     704 2002 12 21 12 57 11  75  4.6547     73.60759    271.09069    149.87262    -25.00000     25.00000    -10.67918    150.0    150.0      0.0      0.0    -20.0    400.0      1.0
     705 2002 12 21 12 57 15 742  4.6669     73.17083    271.08128    149.80763    -25.00000     25.00000    -10.79907    150.0    150.0      0.0      0.0    -20.0    400.0      1.0
     706 2002 12 21 12 57 20 422  4.6808     73.11500    271.06814    149.74075    -25.00000     25.00000    -10.91312    150.0    150.0      0.0      0.0    -20.0    400.0      1.0
     707 2002 12 21 12 57 25 119  4.6962     72.66171    271.05795    149.68294    -25.00000     25.00000    -10.95511    150.0    150.0      0.0      0.0    -20.0    400.0      1.0
     708 2002 12 21 12 57 29 831  4.7124     72.46584    271.05698    149.62659    -25.00000     25.00000    -11.07163    150.0    150.0      0.0      0.0    -20.0    400.0      1.0
     709 2002 12 21 12 57 34 561  4.7297     72.32624    271.06520    149.57454    -25.00000     25.00000    -11.10525    150.0    150.0      0.0      0.0    -20.0    400.0      1.0
     710 2002 12 21 12 57 39 297  4.7363     72.10114    271.08237    149.53708    -25.00000     25.00000    -11.15653    150.0    150.0      0.0      0.0    -20.0    400.0      1.0
     711 2002 12 21 12 57 44  42  4.7450     72.10137    271.10845    149.49418    -25.00000     25.00000    -11.22014    150.0    150.0      0.0      0.0    -20.0    400.0      1.0
     712 2002 12 21 12 57 48 794  4.7523     72.08725    271.13310    149.46651    -25.00000     25.00000    -11.25117    150.0    150.0      0.0      0.0    -20.0    400.0      1.0
     713 2002 12 21 12 57 53 542  4.7481     72.07676    271.15172    149.44012    -25.00000     25.00000    -11.34282    150.0    150.0      0.0      0.0    -20.0    400.0      1.0
     714 2002 12 21 12 57 58 272  4.7296     72.05325    271.15397    149.41788    -25.00000     25.00000    -11.40679    150.0    150.0      0.0      0.0    -20.0    400.0      1.0
     715 2002 12 21 12 58  2 986  4.7139     72.02507    271.13849    149.41194    -25.00000     25.00000    -11.50766    150.0    150.0      0.0      0.0    -20.0    400.0      1.0
     716 2002 12 21 12 58  7 690  4.7038     72.00407    271.10404    149.39916    -25.00000     25.00000    -11.59129    150.0    150.0      0.0      0.0    -20.0    400.0      1.0
     717 2002 12 21 12 58 12 379  4.6892     71.98240    271.07152    149.40433    -25.00000     25.00000    -11.63431    150.0    150.0      0.0      0.0    -20.0    400.0      1.0
     718 2002 12 21 12 58 17  59  4.6804     71.95810    271.06396    149.41787    -25.00000     25.00000    -11.72130    150.0    150.0      0.0      0.0    -20.0    400.0      1.0
     719 2002 12 21 12 58 21 727  4.6674     71.93769    271.08360    149.44752    -25.00000     25.00000    -11.75524    150.0    150.0      0.0      0.0    -20.0    400.0      1.0
     720 2002 12 21 12 58 26 388  4.6611     71.92179    271.12155    149.48676    -25.00000     25.00000    -11.60112    150.0    150.0      0.0      0.0    -20.0    400.0      1.0
     721 2002 12 21 12 58 31  37  4.6488     71.91158    271.16415    149.53302    -25.00000     25.00000    -11.56987    150.0    150.0      0.0      0.0    -20.0    400.0      1.0
     722 2002 12 21 12 58 35 683  4.6462     71.90630    271.19454    149.57991    -25.00000     25.00000    -11.49589    150.0    150.0      0.0      0.0    -20.0    400.0      1.0
     723 2002 12 21 12 58 40 315  4.6324     71.90435    271.20587    149.63019    -25.00000     25.00000    -11.43439    150.0    150.0      0.0      0.0    -20.0    400.0      1.0
     724 2002 12 21 12 58 44 950  4.6345     71.90275    271.21288    149.68147    -25.00000     25.00000    -11.39722    150.0    150.0      0.0      0.0    -20.0    400.0      1.0
     725 2002 12 21 12 58 49 569  4.6191     71.89710    271.20075    149.73611    -25.00000     25.00000    -11.31783    150.0    150.0      0.0      0.0    -20.0    400.0      1.0
     726 2002 12 21 12 58 54 194  4.6254     71.89134    271.17115    149.78618    -25.00000     25.00000    -11.31030    150.0    150.0      0.0      0.0    -20.0    400.0      1.0
     727 2002 12 21 12 58 58 803  4.6081     71.88608    271.14376    149.84001    -25.00000     25.00000    -11.19674    150.0    150.0      0.0      0.0    -20.0    400.0      1.0
     728 2002 12 21 12 59  3 420  4.6174     71.88153    271.13367    149.89537    -25.00000     25.00000    -11.10526    150.0    150.0      0.0      0.0    -20.0    400.0      1.0
     729 2002 12 21 12 59  8  21  4.6008     71.87791    271.14033    149.95283    -25.00000     25.00000    -10.99789    150.0    150.0      0.0      0.0    -20.0    400.0      1.0
     730 2002 12 21 12 59 12 632  4.6111     71.87466    271.16251    150.01567    -25.00000     25.00000    -10.79766    150.0    150.0      0.0      0.0    -20.0    400.0      1.0
     731 2002 12 21 12 59 17 227  4.5950     71.87158    271.19212    150.07938    -25.00000     25.00000    -10.68374    150.0    150.0      0.0      0.0    -20.0    400.0      1.0
     732 2002 12 21 12 59 21 831  4.6042     71.86841    271.20982    150.14653    -25.00000     25.00000    -10.53357    150.0    150.0      0.0      0.0    -20.0    400.0      1.0
     733 2002 12 21 12 59 26 422  4.5905     71.86492    271.21324    150.21809    -25.00000     25.00000    -10.39173    150.0    150.0      0.0      0.0    -20.0    400.0      1.0
     734 2002 12 21 12 59 31  19  4.5977     71.86191    271.21175    150.29046    -25.00000     25.00000    -10.30955    150.0    150.0      0.0      0.0    -20.0    400.0      1.0
     735 2002 12 21 12 59 35 608  4.5886     71.85919    271.20493    150.36836    -25.00000     25.00000    -10.15943    150.0    150.0      0.0      0.0    -20.0    400.0      1.0
     736 2002 12 21 12 59 40 202  4.5946     71.85887    271.19283    150.45131    -25.00000     25.00000    -10.09772    150.0    150.0      0.0      0.0    -20.0    400.0      1.0
     737 2002 12 21 12 59 44 795  4.5923     71.86340    271.17850    150.53750    -25.00000     25.00000     -9.98686    150.0    150.0      0.0      0.0    -20.0    400.0      1.0
     738 2002 12 21 12 59 49 388  4.5931     71.87546    271.17503    150.63222    -25.00000     25.00000     -9.85450    150.0    150.0      0.0      0.0    -20.0    400.0      1.0
     739 2002 12 21 12 59 53 982  4.5941     71.89365    271.17966    150.72617    -25.00000     25.00000     -9.74951    150.0    150.0      0.0      0.0    -20.0    400.0      1.0
     740 2002 12 21 12 59 58 578  4.5963     71.90215    271.20041    150.82812    -25.00000     25.00000     -9.58834    150.0    150.0      0.0      0.0    -20.0    400.0      1.0
     741 2002 12 21 13  0  0   0  1.4213     71.90649    271.20676    150.85861    -25.00000     25.00000     -9.55239    150.0    150.0      0.0      0.0    -20.0    400.0      1.0
